%OpenBCI Raw EXG Data
%Number of channels = 16
%Sample Rate = 125 Hz
%Board = OpenBCI_GUI$BoardCytonSerialDaisy
Sample Index, EXG Channel 0, EXG Channel 1, EXG Channel 2, EXG Channel 3, EXG Channel 4, EXG Channel 5, EXG Channel 6, EXG Channel 7, EXG Channel 8, EXG Channel 9, EXG Channel 10, EXG Channel 11, EXG Channel 12, EXG Channel 13, EXG Channel 14, EXG Channel 15, Accel Channel 0, Accel Channel 1, Accel Channel 2, Other, Other, Other, Other, Other, Other, Other, Analog Channel 0, Analog Channel 1, Analog Channel 2, Timestamp, Other, Timestamp (Formatted)
156.0, -103204.32969383356, -105384.04946137065, -112173.19067397008, -115128.0242357283, -116198.69514688196, -108302.36027268891, -114576.42788606024, -112906.1490781485, -116066.64104064001, -111636.77115878716, -110001.18225827007, -111736.61640126901, -115771.91093825233, -116979.9556708283, -110074.31716612783, 0.0, 0.0, 0.0, 0.0, 196.0, 126.5, 32.0, 0.0, 4.0, 234.0, 39.0, 0.0, 0.0, 0.0, 1.719437323872641E9, 0.0, 2024-06-26 16:28:43.872
0.0, -54431.705705130786, -55631.32383004711, -59085.38360421463, -60574.72504076065, -61092.21262838991, -57171.13550557322, -60269.42256324561, -59430.85216651585, -58021.462919886464, -55803.20874490843, -54995.97549390501, -55862.4855712039, -57873.807296014704, -58473.370489283865, -55025.68096228611, 0.0, 0.0, 0.0, 0.0, 196.0, 0.0, 0.0, 0.0, 5.0, 79.0, 139.5, 0.0, 0.0, 0.0, 1.719437323949943E9, 0.0, 2024-06-26 16:28:43.949
2.0, -107363.63170905491, -109742.7066853889, -116674.7426002911, -119676.98421203902, -120699.71063133606, -112858.80808339216, -119037.70196887279, -117358.92949806804, -121361.72459861333, -117035.29859009966, -115329.1228805927, -117253.98805785038, -121148.93599139882, -122360.22172692082, -115473.89512942971, 0.0, 0.0, 0.0, 0.0, 196.0, 0.0, 0.0, 0.0, 5.0, 79.0, 152.5, 0.0, 0.0, 0.0, 1.719437323956978E9, 0.0, 2024-06-26 16:28:43.956
4.0, -107099.45644133765, -109499.83263013752, -116411.26023665193, -119391.3289179002, -120425.76765129181, -112584.46277194773, -118781.6850878817, -117104.43253569992, -120126.32133082407, -115798.75538334316, -114077.08991492867, -115992.54500777066, -119917.66779633377, -121128.4394417333, -114240.2129459635, 0.0, 0.0, 0.0, 0.0, 196.0, 0.0, 0.0, 0.0, 5.0, 79.0, 160.0, 0.0, 0.0, 0.0, 1.719437323963022E9, 0.0, 2024-06-26 16:28:43.963
6.0, -107744.99717295136, -110146.26743152946, -117046.18388964939, -120017.08835567097, -121053.11406291892, -113211.58566613027, -119416.02759552332, -117740.47377592014, -120366.40141801852, -116029.58184833311, -114311.64912124266, -116216.21891453493, -120153.4116451039, -121369.59241266162, -114475.53211158898, 0.0, 0.0, 0.0, 0.0, 196.0, 125.0, 112.0, 0.0, 5.0, 79.0, 168.0, 0.0, 0.0, 0.0, 1.719437323971068E9, 0.0, 2024-06-26 16:28:43.971
8.0, -108076.11591531229, -110476.11212445643, -117388.81378040479, -120369.93299364246, -121406.22692182387, -113563.62564130136, -119761.78673050246, -118084.28830913166, -121227.14474524793, -116885.16192259335, -115162.51297742284, -117058.70086654436, -121017.0159956236, -122231.22980966924, -115337.68359871909, 0.0, 0.0, 0.0, 0.0, 196.0, 19.5, 168.0, 0.0, 5.0, 79.0, 176.0, 0.0, 0.0, 0.0, 1.719437323979106E9, 0.0, 2024-06-26 16:28:43.979
10.0, -107737.59874553666, -110124.96621906356, -117043.0769971701, -120031.95226573377, -121060.04310370007, -113219.38642494517, -119411.66900535453, -117732.9412380387, -121083.26656618912, -116748.4586535047, -115032.42582469295, -116942.51649886568, -120871.10380781935, -122084.71412476471, -115194.20775106046, 0.0, 0.0, 0.0, 0.0, 196.0, 0.0, 0.0, 0.0, 5.0, 79.0, 184.0, 0.0, 0.0, 0.0, 1.719437323988057E9, 0.0, 2024-06-26 16:28:43.988
12.0, -106918.31790427184, -109316.19069769273, -116233.1391850876, -119221.20979085086, -120252.5863352521, -112410.92382799672, -118603.96636771756, -116925.9538562243, -120342.61916191808, -116015.00851094825, -114300.16032459264, -116222.49975472687, -120129.60703725899, -121340.87042103654, -114454.1638438897, 0.0, 0.0, 0.0, 0.0, 196.0, 0.0, 0.0, 0.0, 5.0, 79.0, 192.0, 0.0, 0.0, 0.0, 1.719437323995108E9, 0.0, 2024-06-26 16:28:43.995
14.0, -106291.53028625612, -108675.27677718125, -115599.80250594647, -118592.27640536743, -119618.40028982167, -111777.27422443322, -117963.16420592836, -116285.79989502429, -119812.033452038, -115482.16527487818, -113765.08191407705, -115679.86645458538, -119600.60830123525, -120812.38577513526, -113922.8852299315, 0.0, 0.0, 0.0, 0.0, 196.0, 0.0, 0.0, 0.0, 5.0, 79.0, 200.0, 0.0, 0.0, 0.0, 1.719437324003145E9, 0.0, 2024-06-26 16:28:44.003
16.0, -105729.69683762752, -108129.55893630492, -115043.02055156477, -118023.7597851467, -119056.96917259326, -111215.50783103799, -117412.59603650523, -115735.09761513444, -118903.59150214095, -114575.22089185964, -112861.35618226006, -114784.92495833934, -118690.28880480395, -119900.56871182546, -113013.03512013378, 0.0, 0.0, 0.0, 0.0, 196.0, 125.0, 8.0, 0.0, 5.0, 79.0, 208.0, 0.0, 0.0, 0.0, 1.719437324012126E9, 0.0, 2024-06-26 16:28:44.012
18.0, -105166.9246157318, -107544.34556297607, -114478.84016976836, -117479.11482800423, -118504.94813978055, -110661.69865866884, -116839.65377088235, -115160.2778029773, -119005.58251209052, -114669.96993660569, -112949.26559320278, -114854.68475278435, -118794.98437583262, -120005.44309680976, -113114.98142659443, 0.0, 0.0, 0.0, 0.0, 196.0, 20.0, 88.0, 0.0, 5.0, 79.0, 216.0, 0.0, 0.0, 0.0, 1.719437324019169E9, 0.0, 2024-06-26 16:28:44.019
20.0, -103227.35199062253, -105619.8827171186, -112545.05664647302, -115540.88330756228, -116567.1636542277, -108726.61873419509, -114910.56411392262, -113233.0209890629, -116962.36484794198, -112647.11471165594, -110940.55902249325, -112885.60782499408, -116748.12337733786, -117956.3916273584, -111074.35656480273, 0.0, 0.0, 0.0, 0.0, 196.0, 0.0, 0.0, 0.0, 5.0, 79.0, 224.0, 0.0, 0.0, 0.0, 1.71943732402719E9, 0.0, 2024-06-26 16:28:44.027
22.0, -102953.27490011154, -105342.40816145041, -112259.91544245667, -115245.54970807431, -116272.9923454514, -108434.1908614863, -114625.1099854839, -112949.35500018061, -116130.65643676001, -111800.29652122219, -110078.2287214075, -111992.99091017139, -115917.77842256766, -117129.3994342565, -110239.02717101898, 0.0, 0.0, 0.0, 0.0, 196.0, 0.0, 0.0, 0.0, 5.0, 79.0, 232.0, 0.0, 0.0, 0.0, 1.719437324037172E9, 0.0, 2024-06-26 16:28:44.037
24.0, -102874.82027707342, -105273.74360248371, -112187.36167995473, -115168.21267225895, -116201.04208004977, -108360.6759739728, -114555.66311546126, -112879.84107492461, -116007.34186260008, -111673.40566794941, -109957.01521122637, -111873.69965001341, -115791.64752860637, -117005.10138334053, -110113.16449799115, 0.0, 0.0, 0.0, 0.0, 196.0, 0.0, 0.0, 0.0, 5.0, 79.0, 240.0, 0.0, 0.0, 0.0, 1.719437324044242E9, 0.0, 2024-06-26 16:28:44.044
26.0, -102876.3848991853, -105274.01182341717, -112185.41707818712, -115165.01637280184, -116196.95171081445, -108356.16092159283, -114552.46681600415, -112876.42125802294, -115965.83467314657, -111630.73618778422, -109906.36615829065, -111811.13711728301, -115752.6213827874, -116966.34345845503, -110075.2335876505, 0.0, 0.0, 0.0, 0.0, 196.0, 124.5, 112.0, 0.0, 5.0, 79.0, 248.0, 0.0, 0.0, 0.0, 1.719437324051189E9, 0.0, 2024-06-26 16:28:44.051
28.0, -102906.8950303668, -105307.8076610336, -112220.71048268206, -115199.7956871743, -116233.87679265461, -108392.37074761043, -114590.33067111143, -112914.10629917459, -116005.26315036573, -111672.28808072663, -109955.56234783678, -111869.16224588899, -115792.72041234022, -117005.52606648518, -110114.14797474719, 0.0, 0.0, 0.0, 0.0, 196.0, 20.0, 120.0, 0.0, 5.0, 79.5, 128.0, 0.0, 0.0, 0.0, 1.719437324059276E9, 0.0, 2024-06-26 16:28:44.059
30.0, -102924.10587359738, -105320.6599140954, -112234.14388109969, -115211.64211173561, -116245.79027244929, -108403.591323327, -114604.0993456959, -112926.6009243251, -115989.68398448039, -111653.602022362, -109928.91906844606, -111833.28769603821, -115777.20830168824, -116989.38810698845, -110100.33459667381, 0.0, 0.0, 0.0, 0.0, 196.0, 0.0, 0.0, 0.0, 5.0, 80.0, 8.0, 0.0, 0.0, 0.0, 1.719437324067242E9, 0.0, 2024-06-26 16:28:44.067
32.0, -103162.68839391333, -105564.15981819152, -112474.31337527197, -115450.02346635146, -116485.80330441038, -108643.22437563234, -114842.19012763383, -113166.6139562862, -116153.14229168204, -111816.81446037466, -110099.8875617847, -112010.80525050226, -115938.23026874427, -117151.43825428943, -110259.74723812906, 0.0, 0.0, 0.0, 0.0, 196.0, 0.0, 0.0, 0.0, 5.0, 80.0, 16.0, 0.0, 0.0, 0.0, 1.719437324075303E9, 0.0, 2024-06-26 16:28:44.075
34.0, -103363.07178295516, -105763.5150269884, -112671.96985149026, -115646.47294836915, -116682.543359106, -108839.27152624984, -115038.48314744033, -113363.66693540418, -116346.30606726481, -112007.7877650008, -110281.04845059496, -112180.29852870686, -116133.04807341672, -117346.18900372852, -110455.1685399018, 0.0, 0.0, 0.0, 0.0, 196.0, 0.0, 0.0, 0.0, 5.0, 80.0, 24.0, 0.0, 0.0, 0.0, 1.719437324083277E9, 0.0, 2024-06-26 16:28:44.083
36.0, -103406.72473987637, -105806.96681820952, -112718.3050177461, -115698.61956818338, -116731.11369980738, -108889.13826812962, -115084.77361020728, -113410.60559876033, -116545.37070338377, -112210.56279069935, -110493.99352002067, -112405.60411281635, -116331.77743336886, -117545.03012240292, -110651.68507715287, 0.0, 0.0, 0.0, 0.0, 196.0, 124.5, 120.0, 0.0, 5.0, 80.0, 32.0, 0.0, 0.0, 0.0, 1.719437324091285E9, 0.0, 2024-06-26 16:28:44.091
38.0, -103415.41956846949, -105816.51101309193, -112727.6033434395, -115704.92276011978, -116739.8979353783, -108897.11784090017, -115095.72596499039, -113419.523944798, -116472.1910920371, -112138.23254564198, -110410.77797541357, -112313.60433263831, -116261.7941214793, -117474.51036864644, -110582.97581469725, 0.0, 0.0, 0.0, 0.0, 196.0, 20.0, 56.0, 0.0, 5.0, 80.0, 40.0, 0.0, 0.0, 0.0, 1.719437324100315E9, 0.0, 2024-06-26 16:28:44.100
40.0, -103497.45047062046, -105896.32909254183, -112809.14250721247, -115788.69709833826, -116822.01824450711, -108978.99228083996, -115177.10866655216, -113500.72783240413, -116569.33177343986, -112236.40140728968, -110519.04982555508, -112430.68277009521, -116356.05142784733, -117569.84055874831, -110677.25547280973, 0.0, 0.0, 0.0, 0.0, 196.0, 0.0, 0.0, 0.0, 5.0, 80.0, 48.0, 0.0, 0.0, 0.0, 1.719437324107327E9, 0.0, 2024-06-26 16:28:44.107
42.0, -103653.37623994068, -106059.65328927676, -112966.69995387793, -115942.54415542414, -116978.61456616099, -109135.14156760473, -115336.65541847414, -113660.74397095967, -116637.59400100638, -112301.44498365463, -110573.58808202602, -112474.17926480524, -116426.61588509273, -117638.52746945948, -110747.48465388831, 0.0, 0.0, 0.0, 0.0, 196.0, 0.0, 0.0, 0.0, 5.0, 80.0, 56.0, 0.0, 0.0, 0.0, 1.719437324115331E9, 0.0, 2024-06-26 16:28:44.115
44.0, -103973.2967583295, -106375.34932796351, -113283.15595187616, -116260.47536855644, -117294.17649438101, -109450.81525454704, -115652.03853273852, -113976.26119569078, -116940.70600756479, -112603.5288099681, -110885.41726892201, -112792.33399538208, -116726.1516125383, -117940.32072309504, -111046.32747725576, 0.0, 0.0, 0.0, 0.0, 196.0, 0.0, 0.0, 0.0, 5.0, 80.0, 64.0, 0.0, 0.0, 0.0, 1.71943732412436E9, 0.0, 2024-06-26 16:28:44.124
46.0, -104564.05336428326, -106973.92904447664, -113877.66765089842, -116847.0745500415, -117886.94475733576, -110042.04124713436, -116249.65712424007, -114574.2374151036, -117307.65459628757, -112967.05758178921, -111237.85957549329, -113133.64513321461, -117094.6424716285, -118309.77270719681, -111416.00297880209, 0.0, 0.0, 0.0, 0.0, 196.0, 125.0, 48.0, 0.0, 5.0, 80.0, 72.0, 0.0, 0.0, 0.0, 1.719437324130411E9, 0.0, 2024-06-26 16:28:44.130
48.0, -104695.6604356361, -107089.93459819969, -114006.88308559456, -116988.69520291034, -118021.70342465681, -110176.50934177749, -116375.43039029007, -114698.08843113047, -117896.66776617382, -113554.3496673524, -111838.09332109611, -113742.05961728808, -117679.98995542407, -118892.90736829131, -112000.25522711936, 0.0, 0.0, 0.0, 0.0, 196.0, 20.0, 96.0, 0.0, 5.0, 80.0, 80.0, 0.0, 0.0, 0.0, 1.719437324139483E9, 0.0, 2024-06-26 16:28:44.139
50.0, -104280.02974748967, -106681.0317851343, -113596.72857483967, -116579.74768635604, -117615.32635871487, -109769.61818571309, -115969.00862085923, -114291.17492332161, -117553.41202657367, -113220.72752961249, -111498.83854375346, -113408.03514814796, -117344.62438161664, -118552.26678279243, -111665.1131707565, 0.0, 0.0, 0.0, 0.0, 196.0, 0.0, 0.0, 0.0, 5.0, 80.0, 88.0, 0.0, 0.0, 0.0, 1.719437324147418E9, 0.0, 2024-06-26 16:28:44.147
52.0, -104371.26956835623, -106774.5514839353, -113679.31827060203, -116654.9836581926, -117688.23774912808, -109845.01061976084, -116049.38549392052, -114373.40699117268, -117274.48460751589, -112941.77775881026, -111223.86738346427, -113135.23210707094, -117062.70182880186, -118273.80875036822, -111382.16243769675, 0.0, 0.0, 0.0, 0.0, 196.0, 0.0, 0.0, 0.0, 5.0, 80.0, 96.0, 0.0, 0.0, 0.0, 1.719437324155429E9, 0.0, 2024-06-26 16:28:44.155
54.0, -107696.00214910533, -110135.60564942428, -116999.64755769343, -119929.40246217282, -120987.13171328686, -113141.44589202951, -119378.40960960503, -117706.4320691147, -118732.10891867983, -114376.82680807434, -112631.60260100396, -114497.59328336637, -118517.91215156463, -119740.0608348919, -112833.34944645756, 0.0, 0.0, 0.0, 0.0, 196.0, 0.0, 0.0, 0.0, 5.0, 80.0, 104.0, 0.0, 0.0, 0.0, 1.719437324163447E9, 0.0, 2024-06-26 16:28:44.163
56.0, -109257.40560977526, -111666.56603414608, -118564.04615212038, -121528.78153667231, -122569.97049688942, -114723.59177155397, -120934.56041032796, -119259.58773608062, -121977.13517870131, -117623.86472509679, -115899.02530896966, -117773.30848852498, -121766.44763546559, -122983.05308616794, -116084.38832573753, 0.0, 0.0, 0.0, 0.0, 196.0, 125.0, 16.0, 0.0, 5.0, 80.0, 112.0, 0.0, 0.0, 0.0, 1.719437324171479E9, 0.0, 2024-06-26 16:28:44.171
58.0, -109914.23397233892, -112322.38856820925, -119231.87157295604, -122206.73229774623, -123247.7424440077, -115400.46964889404, -121603.32460443076, -119926.92141853827, -122901.1115909948, -118558.99465787348, -116830.31074170003, -118717.2226568726, -122692.77098092687, -123907.70005079509, -117011.80690667713, 0.0, 0.0, 0.0, 0.0, 196.0, 20.5, 48.0, 0.0, 5.0, 80.0, 120.0, 0.0, 0.0, 0.0, 1.719437324179472E9, 0.0, 2024-06-26 16:28:44.179
60.0, -108383.20653238375, -110766.70715411988, -117696.46319108763, -120696.62609060123, -121721.8782570217, -113876.48300844229, -120061.41186492586, -118381.90178655408, -122294.12761856648, -117969.4450461203, -116259.35778133366, -118183.28418532423, -122084.4682555757, -123290.59073812852, -116407.37103311671, 0.0, 0.0, 0.0, 0.0, 196.0, 0.0, 0.0, 0.0, 5.0, 80.0, 128.0, 0.0, 0.0, 0.0, 1.719437324186488E9, 0.0, 2024-06-26 16:28:44.186
62.0, -106428.32296232259, -108818.6855696065, -115752.93430720977, -118756.67348583622, -119782.39503889026, -111937.69269438896, -118120.98987352729, -116440.25044921046, -120487.50316947738, -116169.50376862333, -114458.45537882512, -116395.94929170005, -120275.1839488964, -121481.32878319369, -114599.87486599384, 0.0, 0.0, 0.0, 0.0, 196.0, 0.0, 0.0, 0.0, 5.0, 80.0, 136.0, 0.0, 0.0, 0.0, 1.719437324195564E9, 0.0, 2024-06-26 16:28:44.195
64.0, -105836.31465867933, -108228.73362645312, -115149.28074470529, -118138.02190280223, -119166.22449949081, -111323.19853582366, -117515.95050286657, -115837.51330822866, -119105.02542317218, -114778.06297279155, -113057.47038811093, -114977.23936763279, -118892.72855433567, -120101.89087413442, -113214.20082023155, 0.0, 0.0, 0.0, 0.0, 196.0, 0.0, 0.0, 0.0, 5.0, 80.0, 144.0, 0.0, 0.0, 0.0, 1.719437324203591E9, 0.0, 2024-06-26 16:28:44.203
66.0, -105102.7080539117, -107497.8762862535, -114425.53125924246, -117421.42497556508, -118450.6557524986, -110606.53455335315, -116793.87739823788, -115114.68024428848, -118837.76561472006, -114508.41152768274, -112789.76354476971, -114707.0738324015, -118626.07224298385, -119836.30744651645, -112948.01389551329, 0.0, 0.0, 0.0, 0.0, 196.0, 124.5, 96.0, 0.0, 5.0, 80.0, 152.0, 0.0, 0.0, 0.0, 1.719437324210541E9, 0.0, 2024-06-26 16:28:44.210
68.0, -105712.68716009703, -108117.51134604351, -115019.93119954244, -117991.03683126412, -119026.36963443396, -111183.5448364669, -117388.70202168252, -115712.70116719023, -118219.09167994163, -113884.50728470174, -112154.39285688316, -114056.92864142999, -118006.77245936067, -119220.56159026166, -112326.45658570011, 0.0, 0.0, 0.0, 0.0, 196.0, 20.5, 8.0, 0.0, 5.0, 80.0, 160.0, 0.0, 0.0, 0.0, 1.719437324218634E9, 0.0, 2024-06-26 16:28:44.218
70.0, -106369.7613918497, -108780.41938309901, -115685.78966686604, -118657.52114743248, -119695.78202912594, -111852.13021661404, -118057.55562276312, -116382.15826537112, -119108.44524007384, -114768.63053663142, -113046.27216413882, -114948.62913473, -118893.46616190269, -120107.27764454814, -113213.39615743115, 0.0, 0.0, 0.0, 0.0, 196.0, 0.0, 0.0, 0.0, 5.0, 80.0, 168.0, 0.0, 0.0, 0.0, 1.719437324227578E9, 0.0, 2024-06-26 16:28:44.227
72.0, -106363.0558685131, -108760.39222006706, -115673.96559404918, -118656.96235382109, -119688.09302903332, -111844.48592001032, -118042.06586385559, -116365.59562272974, -119549.64632387714, -115211.86562918016, -113487.69676538667, -115389.38318364421, -119337.52826899628, -120548.65754230709, -113659.1793488478, 0.0, 0.0, 0.0, 0.0, 196.0, 0.0, 0.0, 0.0, 5.0, 80.0, 176.0, 0.0, 0.0, 0.0, 1.719437324235604E9, 0.0, 2024-06-26 16:28:44.235
74.0, -106469.47252386481, -108874.20730283349, -115786.03724074809, -118767.40232317476, -119801.88576005529, -111957.83161614319, -118157.51262396725, -116480.84121714131, -119533.68717833605, -115199.50511449637, -113480.29833797198, -115390.43371563361, -119320.9656263549, -120534.73240551143, -113641.65558119483, 0.0, 0.0, 0.0, 0.0, 196.0, 0.0, 0.0, 0.0, 5.0, 80.0, 184.0, 0.0, 0.0, 0.0, 1.719437324242672E9, 0.0, 2024-06-26 16:28:44.242
76.0, -105174.83713326897, -107556.10258055957, -114491.67007108571, -117495.45395320105, -118518.51564866492, -110675.19911231985, -116856.01524782363, -115178.15919854156, -119169.64431639247, -114840.60315377751, -113121.01639759737, -115035.89034508352, -118958.15211035636, -120167.40383713292, -113282.37364082022, 0.0, 0.0, 0.0, 0.0, 196.0, 124.5, 88.0, 0.0, 5.0, 80.0, 192.0, 0.0, 0.0, 0.0, 1.719437324250632E9, 0.0, 2024-06-26 16:28:44.250
78.0, -104348.33667854509, -106746.76826557735, -113665.25902333963, -116653.6872570142, -117682.20277812515, -109840.54027086977, -116034.61099083556, -114358.27486017643, -117606.25155046601, -113281.85955069776, -111568.4865794762, -113498.98439633661, -117391.25012055042, -118600.61360604926, -111713.43764226887, 0.0, 0.0, 0.0, 0.0, 196.0, 20.0, 96.0, 0.0, 5.0, 80.0, 200.0, 0.0, 0.0, 0.0, 1.719437324259652E9, 0.0, 2024-06-26 16:28:44.259
80.0, -104461.30239502221, -106859.89044426566, -113773.73203918124, -116755.38769428585, -117787.12186659836, -109944.81115875379, -116142.16758515449, -114466.74787601804, -117506.76393589545, -113171.17371215508, -111443.42856924875, -113345.78553983994, -117294.5341222923, -118506.64687235915, -111616.16285039937, 0.0, 0.0, 0.0, 0.0, 196.0, 0.0, 0.0, 0.0, 5.0, 80.0, 208.0, 0.0, 0.0, 0.0, 1.71943732426675E9, 0.0, 2024-06-26 16:28:44.266
82.0, -104377.885684715, -106776.02669906935, -113691.65643354136, -116676.19546368069, -117707.32613889291, -109864.92602407052, -116062.1483400045, -114386.05807853438, -117541.63265724572, -113207.16002072812, -111490.99308144965, -113406.85050569184, -117326.38535814111, -118538.49810820796, -111647.16471995888, 0.0, 0.0, 0.0, 0.0, 196.0, 0.0, 0.0, 0.0, 5.0, 80.0, 216.0, 0.0, 0.0, 0.0, 1.71943732427678E9, 0.0, 2024-06-26 16:28:44.276
84.0, -104433.83210108663, -106836.26465037641, -113747.26757374617, -116727.62682767236, -117761.01502907457, -109917.81025145177, -116116.48543077534, -114440.75279721651, -117490.08953453178, -113151.57123226777, -111423.58022017244, -113326.13835646372, -117275.26691857183, -118487.75964829442, -111597.52149552364, 0.0, 0.0, 0.0, 0.0, 196.0, 0.0, 0.0, 0.0, 5.0, 80.0, 224.0, 0.0, 0.0, 0.0, 1.719437324283781E9, 0.0, 2024-06-26 16:28:44.283
86.0, -104531.10689295613, -106931.25956431146, -113843.80475804863, -116826.42153816481, -117858.15571047732, -110015.219153788, -116212.59793193317, -114537.84877513038, -117597.57907361735, -113260.44657950957, -111543.8773088309, -113454.25855568155, -117380.78950414533, -118593.12577165673, -111700.16070606241, 0.0, 0.0, 0.0, 0.0, 196.0, 124.5, 88.0, 0.0, 5.0, 80.0, 232.0, 0.0, 0.0, 0.0, 1.719437324291752E9, 0.0, 2024-06-26 16:28:44.291
88.0, -104320.62051542051, -106718.04627395229, -113635.95588635873, -116621.72426244311, -117653.97252487809, -109809.918380966, -116005.01728117673, -114328.36822609523, -117601.58003587485, -113267.0850476128, -111539.87634657341, -113443.08268345389, -117390.33369902775, -118602.17822816114, -111712.36475853501, 0.0, 0.0, 0.0, 0.0, 196.0, 19.5, 176.0, 0.0, 5.0, 80.0, 240.0, 0.0, 0.0, 0.0, 1.719437324298794E9, 0.0, 2024-06-26 16:28:44.298
90.0, -103912.67882736669, -106311.22217312125, -113224.21440174752, -116210.13924004308, -117239.81705186571, -109397.08166087647, -115592.7840581875, -113917.29729381768, -117139.41301577247, -112809.16485895692, -111094.56254179032, -113014.93501841248, -116924.56804806806, -118135.89848707897, -111245.0568372079, 0.0, 0.0, 0.0, 0.0, 196.0, 0.0, 0.0, 0.0, 5.0, 80.0, 248.0, 0.0, 0.0, 0.0, 1.719437324306774E9, 0.0, 2024-06-26 16:28:44.306
92.0, -104213.28743854612, -106615.87645004707, -113525.82884142743, -116506.18809535362, -117540.76093921196, -109697.0420714667, -115896.8571897575, -114221.90686725461, -117223.65674062453, -112884.46788602685, -111153.68290587461, -113052.84357700868, -117009.4152700204, -118223.24910441031, -111330.50755626053, 0.0, 0.0, 0.0, 0.0, 196.0, 0.0, 0.0, 0.0, 5.0, 80.5, 128.0, 0.0, 0.0, 0.0, 1.719437324315791E9, 0.0, 2024-06-26 16:28:44.315
94.0, -104339.06070459614, -106736.17353870554, -113647.1764620753, -116628.20626833514, -117659.18048133618, -109816.19922115795, -116014.96380745934, -114340.4381681011, -117331.90623902157, -112994.05848909123, -111276.75161084553, -113187.33402339627, -117115.76487013875, -118327.76586148333, -111435.11372031138, 0.0, 0.0, 0.0, 0.0, 196.0, 0.0, 0.0, 0.0, 5.0, 81.0, 8.0, 0.0, 0.0, 0.0, 1.719437324322813E9, 0.0, 2024-06-26 16:28:44.322
96.0, -104268.608006073, -106671.08525885169, -113580.99294674314, -116563.27445069248, -117596.41678290568, -109752.56380469368, -115950.38961772795, -114275.46164696952, -117433.3161036153, -113095.40129845159, -111369.28783289049, -113272.15889360415, -117217.51001089932, -118428.81809816576, -111539.40695993984, 0.0, 0.0, 0.0, 0.0, 196.0, 124.5, 112.0, 0.0, 5.0, 81.0, 16.0, 0.0, 0.0, 0.0, 1.719437324330801E9, 0.0, 2024-06-26 16:28:44.330
98.0, -104247.59736628502, -106641.82682535969, -113552.04743767351, -116534.99949395651, -117565.1466924127, -109721.78545257873, -115918.18075396786, -114242.7163413425, -117359.3541812127, -113021.28291383779, -111302.99255883606, -113213.39615743115, -117141.69289370692, -118352.71040829545, -111459.6559357233, 0.0, 0.0, 0.0, 0.0, 196.0, 19.5, 160.0, 0.0, 5.0, 81.0, 24.0, 0.0, 0.0, 0.0, 1.719437324338835E9, 0.0, 2024-06-26 16:28:44.338
100.0, -104148.19915869227, -106552.03986788272, -113459.3324016729, -116440.5857253773, -117474.64447911317, -109630.6797421789, -115828.86318312446, -114153.17525305453, -117301.50786656236, -112964.10715152111, -111237.77016851548, -113143.14462460812, -117082.70664008935, -118294.23824480036, -111403.55305714048, 0.0, 0.0, 0.0, 0.0, 196.0, 0.0, 0.0, 0.0, 5.0, 81.0, 32.0, 0.0, 0.0, 0.0, 1.719437324346855E9, 0.0, 2024-06-26 16:28:44.346
102.0, -104140.26428941064, -106535.47722524134, -113442.63564856478, -116424.85009728077, -117454.50555735893, -109612.06073904762, -115808.32192997003, -114132.96927606694, -117246.36611299112, -112909.85946772808, -111188.86455164726, -113097.9941008084, -117027.43077605138, -118239.56587786268, -111345.99731516808, 0.0, 0.0, 0.0, 0.0, 196.0, 0.0, 0.0, 0.0, 5.0, 81.0, 40.0, 0.0, 0.0, 0.0, 1.719437324354874E9, 0.0, 2024-06-26 16:28:44.354
104.0, -104130.20600440574, -106532.66090543997, -113438.74644502955, -116418.34573964427, -117452.27038291341, -109609.4232332019, -115808.32192997003, -114132.47753768893, -117239.66058965452, -112899.91294144547, -111175.45350497408, -113081.85614131167, -117020.59114224806, -118231.42984288096, -111339.06827438693, 0.0, 0.0, 0.0, 0.0, 196.0, 0.0, 0.0, 0.0, 5.0, 81.0, 48.0, 0.0, 0.0, 0.0, 1.719437324362858E9, 0.0, 2024-06-26 16:28:44.362
106.0, -104143.46058886775, -106541.1992718219, -113445.69783755516, -116426.45942288154, -117456.98660099348, -109614.18415477088, -115812.27818873861, -114135.7408923794, -117229.35643546062, -112893.6991564869, -111171.67606016113, -113078.25751045436, -117011.98572063277, -118222.153868932, -111330.44050102717, 0.0, 0.0, 0.0, 0.0, 196.0, 124.5, 72.0, 0.0, 5.0, 81.0, 56.0, 0.0, 0.0, 0.0, 1.719437324372002E9, 0.0, 2024-06-26 16:28:44.372
108.0, -104241.18241562635, -106647.30300275124, -113551.08631266194, -116530.21622064308, -117565.30315462389, -109721.40547292298, -115921.35470168051, -114245.37619893267, -117298.26686361634, -112960.910852064, -111235.95967721459, -113141.1553193516, -117079.55504412115, -118292.74067792186, -111399.5967983719, 0.0, 0.0, 0.0, 0.0, 196.0, 20.0, 72.0, 0.0, 5.0, 81.0, 64.0, 0.0, 0.0, 0.0, 1.719437324378963E9, 0.0, 2024-06-26 16:28:44.378
110.0, -104247.73147675175, -106643.83848236066, -113549.6558010168, -116531.26675263248, -117561.07867492184, -109718.20917346588, -115915.0068062552, -114239.29652444084, -117355.42027418855, -113015.91849516852, -111294.09656454285, -113199.15809621313, -117135.65792270398, -118345.80371925877, -111454.62679322086, 0.0, 0.0, 0.0, 0.0, 196.0, 0.0, 0.0, 0.0, 5.0, 81.0, 72.0, 0.0, 0.0, 0.0, 1.719437324386945E9, 0.0, 2024-06-26 16:28:44.386
112.0, -104238.00846791369, -106640.19514801445, -113546.43714981523, -116526.25996187449, -117560.18460514363, -109716.84571705411, -115916.57142836708, -114240.03413200786, -117346.94896303999, -113007.93892239797, -111286.00523305002, -113194.64304383314, -117125.82315514365, -118336.8853732211, -111444.99319136063, 0.0, 0.0, 0.0, 0.0, 196.0, 0.0, 0.0, 0.0, 5.0, 81.0, 80.0, 0.0, 0.0, 0.0, 1.719437324395009E9, 0.0, 2024-06-26 16:28:44.395
114.0, -104260.06963969108, -106655.99783134436, -113562.3068883785, -116543.3143428939, -117573.86387275027, -109730.68144687194, -115927.43437617236, -114251.27705946888, -117353.83330033223, -113015.47146027941, -111291.23554125256, -113194.75480255543, -117135.16618432596, -118345.11081518064, -111454.06799960948, 0.0, 0.0, 0.0, 0.0, 196.0, 0.0, 0.0, 0.0, 5.0, 81.0, 88.0, 0.0, 0.0, 0.0, 1.719437324402984E9, 0.0, 2024-06-26 16:28:44.402
116.0, -104298.82756457658, -106703.5846952897, -113607.8150400895, -116586.38615445927, -117619.72965237257, -109776.54722649422, -115975.31181279563, -114300.11562110373, -117363.17632951455, -113026.60262901815, -111305.22773328159, -113215.43016617658, -117143.48103326334, -118355.81730077474, -111463.1651596028, 0.0, 0.0, 0.0, 0.0, 196.0, 125.0, 8.0, 0.0, 5.0, 81.0, 96.0, 0.0, 0.0, 0.0, 1.719437324411022E9, 0.0, 2024-06-26 16:28:44.411
118.0, -104337.38432376199, -106734.16188170457, -113643.30961028453, -116623.28888455498, -117654.50896674502, -109810.3207123662, -116007.11834515553, -114330.71515926304, -117459.89232777267, -113119.29531327431, -111394.07591749143, -113296.18701889362, -117241.38167397758, -118451.39336006563, -111560.14937879436, 0.0, 0.0, 0.0, 0.0, 196.0, 20.0, 64.0, 0.0, 5.0, 81.0, 104.0, 0.0, 0.0, 0.0, 1.719437324419032E9, 0.0, 2024-06-26 16:28:44.419
120.0, -104313.15503277244, -106715.5875820622, -113622.99187457465, -116602.769983145, -117636.7616816475, -109792.03698540176, -115991.53917927018, -114314.97953116651, -117413.19953360553, -113076.71524008695, -111358.02255368502, -113269.67784996961, -117196.2087984334, -118404.67821415403, -111514.52946836108, 0.0, 0.0, 0.0, 0.0, 196.0, 0.0, 0.0, 0.0, 5.0, 81.0, 112.0, 0.0, 0.0, 0.0, 1.719437324428004E9, 0.0, 2024-06-26 16:28:44.428
122.0, -104451.13235129505, -106847.6193365597, -113755.850643617, -116734.30999926449, -117766.73707565512, -109921.92297243155, -116121.62633200006, -114444.79846296294, -117486.82617984132, -113146.34092406523, -111420.54038292651, -113320.48336511652, -117269.34370629117, -118480.62944181317, -111589.67603321983, 0.0, 0.0, 0.0, 0.0, 196.0, 0.0, 0.0, 0.0, 5.0, 81.0, 120.0, 0.0, 0.0, 0.0, 1.719437324434037E9, 0.0, 2024-06-26 16:28:44.434
124.0, -104463.22464504537, -106866.70772632453, -113774.71551593728, -116753.7113134517, -117787.59125323192, -109942.77715000835, -116143.35222761062, -114466.14437891774, -117545.81243345886, -113205.90832303863, -111489.83079073796, -113400.8155346889, -117324.41840462905, -118535.32416049531, -111644.50486236869, 0.0, 0.0, 0.0, 0.0, 196.0, 0.0, 0.0, 0.0, 5.0, 81.0, 128.0, 0.0, 0.0, 0.0, 1.719437324444071E9, 0.0, 2024-06-26 16:28:44.444
126.0, -104575.13982953309, -106974.15256192119, -113882.47327595632, -116860.64205892588, -117893.71733590572, -110048.8808809377, -116249.54536551778, -114572.38222031383, -117612.4653354246, -113273.94703316058, -111546.40305595435, -113446.41309337773, -117397.12862934216, -118607.36383287476, -111717.19273533735, 0.0, 0.0, 0.0, 0.0, 196.0, 125.0, 24.0, 0.0, 5.0, 81.0, 136.0, 0.0, 0.0, 0.0, 1.719437324451079E9, 0.0, 2024-06-26 16:28:44.451
128.0, -104624.96186792396, -107023.50521367851, -113936.11746264905, -116916.90139971989, -117949.06025517706, -110105.25198045398, -116304.5083051334, -114627.0098837626, -117747.71574112365, -113407.63281674778, -111691.77880189166, -113602.00358653112, -117529.60741872877, -118738.99325597206, -111847.34694330061, 0.0, 0.0, 0.0, 0.0, 196.0, 20.0, 104.0, 0.0, 5.0, 81.0, 144.0, 0.0, 0.0, 0.0, 1.719437324459085E9, 0.0, 2024-06-26 16:28:44.459
130.0, -104541.23223319439, -106940.53553826042, -113851.80668256363, -116832.90354405684, -117865.35297219193, -110020.65062769063, -116219.30345526975, -114542.16266181025, -117676.63719375577, -113338.87885080324, -111613.63710327592, -113515.9940738671, -117461.99339175146, -118673.12266506227, -111783.75623032526, 0.0, 0.0, 0.0, 0.0, 196.0, 0.0, 0.0, 0.0, 5.0, 81.0, 152.0, 0.0, 0.0, 0.0, 1.719437324467119E9, 0.0, 2024-06-26 16:28:44.467
132.0, -104453.92631935196, -106853.81076977382, -113766.75829491118, -116749.68799944974, -117780.79632291751, -109936.2951441163, -116134.72445425087, -114457.22603288008, -117616.265131982, -113281.1442948752, -111565.84907363047, -113478.80077109346, -117401.04018462184, -118610.60483582078, -111719.96435164982, 0.0, 0.0, 0.0, 0.0, 196.0, 0.0, 0.0, 0.0, 5.0, 81.0, 160.0, 0.0, 0.0, 0.0, 1.719437324475188E9, 0.0, 2024-06-26 16:28:44.475
134.0, -104390.06738544315, -106790.28711203185, -113701.60295982397, -116682.00691723906, -117714.65751107426, -109869.9775183174, -116070.5972994086, -114393.05417454889, -117503.14295329369, -113163.64117427364, -111437.17008080127, -113339.750568837, -117287.53802627779, -118497.3708984102, -111607.44567006179, 0.0, 0.0, 0.0, 0.0, 196.0, 0.0, 0.0, 0.0, 5.0, 81.0, 168.0, 0.0, 0.0, 0.0, 1.719437324483138E9, 0.0, 2024-06-26 16:28:44.483
136.0, -104595.63637919861, -106994.38089065325, -113904.80266866717, -116883.55259699257, -117915.86791466094, -110071.05381143735, -116274.62402279665, -114597.28206363703, -117565.90665172419, -113226.91896282662, -111510.84143052596, -113420.3733110873, -117348.67004736306, -118558.70408519555, -111666.78955159064, 0.0, 0.0, 0.0, 0.0, 196.0, 125.0, 64.0, 0.0, 5.0, 81.0, 176.0, 0.0, 0.0, 0.0, 1.719437324490148E9, 0.0, 2024-06-26 16:28:44.490
138.0, -104840.23151877303, -107241.65823956231, -114152.30353502078, -117130.0029313568, -118164.97810661532, -110319.1358231468, -116521.45433681659, -114842.97243868977, -117868.79514083805, -113525.76178619407, -111798.19545724339, -113695.41152660985, -117652.27379229949, -118862.73251327664, -111972.53906399479, 0.0, 0.0, 0.0, 0.0, 196.0, 20.0, 88.0, 0.0, 5.0, 81.0, 184.0, 0.0, 0.0, 0.0, 1.719437324499133E9, 0.0, 2024-06-26 16:28:44.499
140.0, -104807.24034395699, -107205.91780017827, -114117.85949681516, -117098.4422681859, -118129.55059165366, -110284.35650877435, -116484.41749625416, -114806.89672313891, -117908.84946690196, -113573.72862979515, -111858.88044343954, -113769.97694611276, -117694.02685094201, -118904.64203413035, -112013.15218367007, 0.0, 0.0, 0.0, 0.0, 196.0, 0.0, 0.0, 0.0, 5.0, 81.0, 192.0, 0.0, 0.0, 0.0, 1.719437324507248E9, 0.0, 2024-06-26 16:28:44.507
142.0, -104834.42006521465, -107236.62909705986, -114150.35893325317, -117130.76289066827, -118164.53107172622, -110319.18052663571, -116519.21916237107, -114840.73726424424, -117971.5461100991, -113632.93840085727, -111906.57906610717, -113806.52204829718, -117757.52815693953, -118968.23274710569, -112078.19576003501, 0.0, 0.0, 0.0, 0.0, 196.0, 0.0, 0.0, 0.0, 5.0, 81.0, 200.0, 0.0, 0.0, 0.0, 1.71943732451526E9, 0.0, 2024-06-26 16:28:44.515
144.0, -104633.90256570608, -107026.85797534681, -113945.79576799819, -116928.25608590318, -117958.15741517037, -110113.32096020234, -116310.81149706978, -114632.24019196513, -117841.03427422456, -113502.35950974937, -111788.20422747187, -113699.50189584517, -117623.52944892997, -118831.86475418387, -111941.78306362427, 0.0, 0.0, 0.0, 0.0, 196.0, 0.0, 0.0, 0.0, 5.0, 81.0, 208.0, 0.0, 0.0, 0.0, 1.719437324522223E9, 0.0, 2024-06-26 16:28:44.522
146.0, -104597.15629782157, -107001.1087657343, -113915.17387809443, -116893.9908616532, -117928.94368516728, -110083.21316042104, -116285.64343281311, -114606.02159571905, -117702.74403127958, -113364.20337727111, -111640.34743790001, -113544.0008096696, -117490.04483104288, -118697.97780489658, -111809.21486725986, 0.0, 0.0, 0.0, 0.0, 196.0, 125.0, 56.0, 0.0, 5.0, 81.0, 216.0, 0.0, 0.0, 0.0, 1.719437324531244E9, 0.0, 2024-06-26 16:28:44.531
148.0, -104649.1464554246, -107048.42740874618, -113961.93372749494, -116940.46013837578, -117971.88138626593, -110126.91082083117, -116326.54712516633, -114648.28874448405, -117694.27272013102, -113357.58726091233, -111640.79447278912, -113549.36522833887, -117481.17118849412, -118689.21592107009, -111799.894189822, 0.0, 0.0, 0.0, 0.0, 196.0, 20.0, 152.0, 0.0, 5.0, 81.0, 224.0, 0.0, 0.0, 0.0, 1.719437324539245E9, 0.0, 2024-06-26 16:28:44.539
150.0, -104769.95763420554, -107174.11126781837, -114089.20456042344, -117066.70279105936, -118101.43209712888, -110256.75210437205, -116457.64010639669, -114779.02409780314, -117850.93609701826, -113510.02615809753, -111786.05846000415, -113687.94604396178, -117636.5158124585, -118845.7004840017, -111955.55173820874, 0.0, 0.0, 0.0, 0.0, 196.0, 0.0, 0.0, 0.0, 5.0, 81.0, 232.0, 0.0, 0.0, 0.0, 1.719437324546307E9, 0.0, 2024-06-26 16:28:44.546
152.0, -104738.79930243484, -107134.36986617683, -114051.60892624962, -117032.59402902056, -118062.20478560982, -110217.88242076426, -116416.33408264328, -114738.0309984721, -117874.45013218524, -113534.85894618738, -111817.59677143059, -113724.96053277976, -117659.73927494757, -118867.56049007899, -111978.3281658087, 0.0, 0.0, 0.0, 0.0, 196.0, 0.0, 0.0, 0.0, 5.0, 81.0, 240.0, 0.0, 0.0, 0.0, 1.719437324555296E9, 0.0, 2024-06-26 16:28:44.555
154.0, -104415.30250493319, -106813.48822277645, -113737.23164048573, -116723.31294099247, -117754.57772667143, -109909.5401060033, -116105.46602075887, -114426.17945983166, -117789.55820674398, -113454.16914870372, -111732.25781110024, -113640.20271780524, -117575.94258498462, -118784.72492512762, -111896.99016773584, 0.0, 0.0, 0.0, 0.0, 196.0, 0.0, 0.0, 0.0, 5.0, 81.0, 248.0, 0.0, 0.0, 0.0, 1.719437324563322E9, 0.0, 2024-06-26 16:28:44.563
156.0, -104717.3639795022, -107120.82470903693, -114026.68673118195, -116998.66408093741, -118031.5605439616, -110187.59580702732, -116393.95998644353, -114716.21569588373, -117414.56299001731, -113078.81630406575, -111357.35200135136, -113264.87222491173, -117198.60043509012, -118410.73553690143, -111519.8715352859, 0.0, 0.0, 0.0, 0.0, 196.0, 125.0, 96.0, 0.0, 5.0, 81.5, 128.0, 0.0, 0.0, 0.0, 1.719437324571371E9, 0.0, 2024-06-26 16:28:44.571
158.0, -104903.68812128165, -107304.93602811528, -114225.95253300102, -117209.03869975076, -118241.39872090802, -110396.91989385127, -116595.41625921922, -114916.8226023701, -118143.49808019378, -113802.56578952858, -112081.23559728095, -113982.09500099362, -117930.59771425698, -119141.25760093423, -112249.2983638404, 0.0, 0.0, 0.0, 0.0, 196.0, 20.0, 144.0, 0.0, 5.0, 82.0, 8.0, 0.0, 0.0, 0.0, 1.719437324579365E9, 0.0, 2024-06-26 16:28:44.579
160.0, -103985.16553463526, -106372.7118221178, -113301.41732709615, -116295.45584862899, -117319.54572433779, -109475.42452519233, -115665.76250383408, -113986.31948069567, -117595.09802998282, -113263.95580338905, -111547.2747739881, -113463.15454997476, -117381.77298090137, -118589.97417568853, -111703.2675985417, 0.0, 0.0, 0.0, 0.0, 196.0, 0.0, 0.0, 0.0, 5.0, 82.0, 16.0, 0.0, 0.0, 0.0, 1.719437324586352E9, 0.0, 2024-06-26 16:28:44.586
162.0, -103581.6494919836, -105983.72441336208, -112903.04218566921, -115886.70949777479, -116917.7954694981, -109074.1436569862, -115272.99765026542, -113594.06871724948, -116777.27005210759, -112444.51849991304, -110726.47401410033, -112644.05252266557, -116561.30749718042, -117770.80509314599, -110881.08103049768, 0.0, 0.0, 0.0, 0.0, 196.0, 0.0, 0.0, 0.0, 5.0, 82.0, 24.0, 0.0, 0.0, 0.0, 1.719437324594401E9, 0.0, 2024-06-26 16:28:44.594
164.0, -103814.53231746344, -106211.35457889493, -113126.69374068902, -116104.43784051393, -117135.65792270398, -109292.00611019209, -115493.49760931703, -113815.44039433484, -116767.83761594744, -112428.69346483868, -110703.65288301145, -112606.30042628056, -116552.6126685873, -117763.38431398683, -110872.2744431823, 0.0, 0.0, 0.0, 0.0, 196.0, 0.0, 0.0, 0.0, 5.0, 82.0, 32.0, 0.0, 0.0, 0.0, 1.719437324603394E9, 0.0, 2024-06-26 16:28:44.603
166.0, -103857.80529472891, -106260.9754515857, -113178.75095352542, -116158.6631725625, -117191.5596355867, -109348.17604400827, -115549.68989487767, -113871.27505198421, -116973.42896144737, -112636.89996443987, -110918.49785071587, -112827.7838620882, -116760.10391236591, -117970.00383973168, -111079.22924509399, 0.0, 0.0, 0.0, 0.0, 196.0, 125.0, 56.0, 0.0, 5.0, 82.0, 40.0, 0.0, 0.0, 0.0, 1.71943732461241E9, 0.0, 2024-06-26 16:28:44.612
168.0, -104647.0453914458, -107049.4108855022, -113958.51391059326, -116927.4514231028, -117964.48295885122, -110119.51239341646, -116328.201154256, -114649.78631136255, -117275.22221508292, -112933.35115115061, -111203.28142682093, -113096.80945835228, -117061.91951774592, -118274.41224746851, -111381.55894059646, 0.0, 0.0, 0.0, 0.0, 196.0, 20.0, 160.0, 0.0, 5.0, 82.0, 48.0, 0.0, 0.0, 0.0, 1.719437324618443E9, 0.0, 2024-06-26 16:28:44.618
170.0, -104958.29343298596, -107360.81538925355, -114279.28379527137, -117258.59251720816, -118292.53951222176, -110448.48536830967, -116651.20621337966, -114973.10429490857, -118032.81224165109, -113693.37751786441, -111974.6848314625, -113878.27114799872, -117819.24132338063, -119031.62229438094, -112139.50659507593, 0.0, 0.0, 0.0, 0.0, 196.0, 0.0, 0.0, 0.0, 5.0, 82.0, 56.0, 0.0, 0.0, 0.0, 1.719437324626423E9, 0.0, 2024-06-26 16:28:44.626
172.0, -104843.53957695242, -107240.02656221707, -114159.43374150203, -117140.79882392871, -118171.86244390756, -110327.85300348437, -116527.53401130844, -114848.82859573705, -118007.30890122759, -113670.57873852001, -111943.90647934753, -113846.71048482782, -117795.28025332454, -119004.37551788993, -112115.54552501983, 0.0, 0.0, 0.0, 0.0, 196.0, 0.0, 0.0, 0.0, 5.0, 82.0, 64.0, 0.0, 0.0, 0.0, 1.719437324635496E9, 0.0, 2024-06-26 16:28:44.635
174.0, -104991.01638686853, -107395.03591001463, -114312.11850787622, -117291.40487806856, -118323.58608527019, -110481.11891521442, -116682.63276608381, -115004.68730982392, -118005.07372678207, -113669.01411640813, -111951.17079629551, -113860.03212452319, -117789.78172418854, -119001.80506727757, -112110.42697553957, 0.0, 0.0, 0.0, 0.0, 196.0, 0.0, 0.0, 0.0, 5.0, 82.0, 72.0, 0.0, 0.0, 0.0, 1.719437324642478E9, 0.0, 2024-06-26 16:28:44.642
176.0, -105030.2884018765, -107428.34000925304, -114348.21657517155, -117328.93345700901, -118360.84644327719, -110517.23933425419, -116716.83093510044, -115038.46079569588, -118148.70603665186, -113813.07110942258, -112083.44841998201, -113984.44193416143, -117936.43151955982, -119149.03600800468, -112258.7978552339, 0.0, 0.0, 0.0, 0.0, 196.0, 125.0, 40.0, 0.0, 5.0, 82.0, 80.0, 0.0, 0.0, 0.0, 1.719437324650508E9, 0.0, 2024-06-26 16:28:44.650
178.0, -104954.94067131766, -107352.81346473855, -114274.9252051026, -117257.13965381858, -118288.60560519763, -110445.04319966355, -116644.34422783187, -114965.86232970505, -118111.75860306724, -113777.01774561618, -112060.78375110433, -113972.19317819992, -117896.93598710728, -119107.95350169583, -112217.40242450267, 0.0, 0.0, 0.0, 0.0, 196.0, 20.5, 88.0, 0.0, 5.0, 82.0, 88.0, 0.0, 0.0, 0.0, 1.719437324659539E9, 0.0, 2024-06-26 16:28:44.659
180.0, -104978.16413380673, -107377.93682550632, -114296.44993501305, -117275.82571218321, -118308.67747171849, -110465.13741792887, -116666.11482693134, -114988.05761194917, -118039.1601370764, -113702.31821564653, -111973.81311342874, -113875.81245610863, -117826.72915777317, -119037.52315491714, -112148.20142366904, 0.0, 0.0, 0.0, 0.0, 196.0, 0.0, 0.0, 0.0, 5.0, 82.0, 96.0, 0.0, 0.0, 0.0, 1.719437324666583E9, 0.0, 2024-06-26 16:28:44.666
182.0, -104895.52973455546, -107291.61438841993, -114214.46373635098, -117196.99110948935, -118228.2111916794, -110384.58173091194, -116583.32396546888, -114904.64090164196, -118083.10366667554, -113746.5970214125, -112031.8382420347, -113942.68887551891, -117867.20816698173, -119078.31508854809, -112188.70278462206, 0.0, 0.0, 0.0, 0.0, 196.0, 0.0, 0.0, 0.0, 5.0, 82.0, 104.0, 0.0, 0.0, 0.0, 1.719437324674597E9, 0.0, 2024-06-26 16:28:44.674
184.0, -104914.50636559802, -107313.34028403048, -114233.68623658255, -117212.39146141904, -118245.82436631017, -110402.59723694292, -116604.35695700134, -114926.36679725251, -117963.72299953974, -113626.3222844985, -111898.80065903673, -113801.40349881692, -117752.05197954798, -118960.99078190218, -112073.14426578811, 0.0, 0.0, 0.0, 0.0, 196.0, 0.0, 0.0, 0.0, 5.0, 82.0, 112.0, 0.0, 0.0, 0.0, 1.719437324682612E9, 0.0, 2024-06-26 16:28:44.682
186.0, -105064.46421914866, -107460.92885266888, -114381.83359883232, -117362.12579752515, -118393.9493768155, -110550.47637825923, -116750.8055866725, -115072.8601304126, -118133.2833329777, -113794.0050714022, -112078.7545536464, -113986.36418418458, -117919.31008330705, -119129.29941765063, -112239.15067185769, 0.0, 0.0, 0.0, 0.0, 196.0, 125.0, 40.0, 0.0, 5.0, 82.0, 120.0, 0.0, 0.0, 0.0, 1.719437324690586E9, 0.0, 2024-06-26 16:28:44.690
188.0, -105114.91210638429, -107514.46128063933, -114433.5555355019, -117413.31129232781, -118446.90065943012, -110603.71823355177, -116804.62858732088, -115127.19722118345, -118197.14226688651, -113859.45097916735, -112130.70000776053, -114031.82763240668, -117984.01838350516, -119194.90178762696, -112305.22242846758, 0.0, 0.0, 0.0, 0.0, 196.0, 20.0, 160.0, 0.0, 5.0, 82.0, 128.0, 0.0, 0.0, 0.0, 1.719437324698621E9, 0.0, 2024-06-26 16:28:44.698
190.0, -105215.02556979962, -107612.18310739794, -114528.97513258162, -117507.3897847402, -118539.727454153, -110696.00858640774, -116897.43303029932, -115219.82285020624, -118227.04890096771, -113890.36344174904, -112173.63770885918, -114082.32022313122, -118011.28751174064, -119223.0426338962, -112331.84335611384, 0.0, 0.0, 0.0, 0.0, 196.0, 0.0, 0.0, 0.0, 5.0, 82.0, 136.0, 0.0, 0.0, 0.0, 1.719437324706686E9, 0.0, 2024-06-26 16:28:44.706
192.0, -105333.64627762394, -107735.81060598024, -114652.28970674155, -117633.31951300139, -118667.3559149928, -110823.74880596982, -117024.79327020566, -115346.33372382328, -118449.20288910902, -114110.99751126737, -112381.5759875269, -114282.1224668172, -118234.31321791568, -119446.694188916, -112555.22669020019, 0.0, 0.0, 0.0, 0.0, 196.0, 0.0, 0.0, 0.0, 5.0, 82.0, 144.0, 0.0, 0.0, 0.0, 1.719437324714666E9, 0.0, 2024-06-26 16:28:44.714
194.0, -105440.30880216465, -107832.57130772727, -114750.86089978945, -117732.24833396058, -118763.24489870608, -110919.92836236101, -117120.50343996329, -115441.88743136972, -118487.58083433878, -114150.60480244218, -112430.95099102867, -114338.7841390114, -118271.99825906733, -119483.3510498227, -112591.3247574955, 0.0, 0.0, 0.0, 0.0, 196.0, 0.0, 0.0, 0.0, 5.0, 82.0, 152.0, 0.0, 0.0, 0.0, 1.719437324721732E9, 0.0, 2024-06-26 16:28:44.721
196.0, -105411.13977565049, -107814.3993394851, -114729.1797076678, -117709.8295342719, -118743.50830835204, -110900.28117898479, -117102.08560253211, -115423.96133231657, -118506.46805840351, -114171.81660793026, -112443.7361888571, -114349.87060426125, -118290.93018662099, -119503.57937855476, -112613.14006008388, 0.0, 0.0, 0.0, 0.0, 196.0, 125.0, 0.0, 0.0, 5.0, 82.0, 160.0, 0.0, 0.0, 0.0, 1.719437324730673E9, 0.0, 2024-06-26 16:28:44.730
198.0, -105706.00398850489, -108103.56385750341, -115014.41031866198, -117993.60728187648, -119024.26857045515, -111181.42142074365, -117382.13060881266, -115705.68271943125, -118654.32484797537, -114317.72879573451, -112594.58811218597, -114498.59911186685, -118438.02701688136, -119650.51974660394, -112757.2641083317, 0.0, 0.0, 0.0, 0.0, 196.0, 20.5, 64.0, 0.0, 5.0, 82.0, 168.0, 0.0, 0.0, 0.0, 1.719437324738684E9, 0.0, 2024-06-26 16:28:44.738
200.0, -105792.92992269158, -108196.77063188204, -115111.57335180919, -118094.30189064765, -119127.35481588302, -111283.9712243046, -117483.27225247292, -115805.84088633549, -118914.74502262415, -114580.38414482881, -112850.02384782123, -114752.51492887914, -118699.18479909716, -119912.57159859796, -113019.69593998147, 0.0, 0.0, 0.0, 0.0, 196.0, 0.0, 0.0, 0.0, 5.0, 82.0, 176.0, 0.0, 0.0, 0.0, 1.719437324746776E9, 0.0, 2024-06-26 16:28:44.746
202.0, -104554.26330021182, -106936.55692774737, -113870.67155488391, -116871.63911719789, -117892.64445217187, -110049.7749507159, -116234.70380719946, -114555.93133639471, -118440.53041226036, -114114.37262468012, -112396.97633945661, -114317.77349922342, -118225.14900268901, -119434.2889707433, -112547.42593138528, 0.0, 0.0, 0.0, 0.0, 196.0, 0.0, 0.0, 0.0, 5.0, 82.0, 184.0, 0.0, 0.0, 0.0, 1.719437324754727E9, 0.0, 2024-06-26 16:28:44.754
204.0, -103933.35419098785, -106333.7974350211, -113252.44465499457, -116240.24703982437, -117269.12018884662, -109427.25651589115, -115623.33889285791, -113944.99110519781, -117198.28751066775, -112874.29784229968, -111148.16202499415, -113069.31681267224, -116982.4143627184, -118194.23654010732, -111304.57953269238, 0.0, 0.0, 0.0, 0.0, 196.0, 0.0, 0.0, 0.0, 5.0, 82.0, 192.0, 0.0, 0.0, 0.0, 1.7194373247628E9, 0.0, 2024-06-26 16:28:44.762
206.0, -103898.68663533767, -106290.4350507778, -113208.63523586217, -116191.922568312, -117220.63925512305, -109377.50153273363, -115574.81325564544, -113897.44894474137, -117005.16843857389, -112675.12144745844, -110947.4433597855, -112857.04229558019, -116789.9658429582, -118002.23505523623, -111109.94054197556, 0.0, 0.0, 0.0, 0.0, 196.0, 125.0, 64.0, 0.0, 5.0, 82.0, 200.0, 0.0, 0.0, 0.0, 1.719437324770765E9, 0.0, 2024-06-26 16:28:44.770
208.0, -103826.93753563614, -106231.91818379381, -113146.65384848761, -116128.62242801457, -117160.58011777165, -109317.48709887113, -115516.65401657272, -113838.39563589045, -116968.60098464502, -112639.15749062986, -110912.26171401283, -112823.49232715278, -116752.28080180656, -117965.37702862943, -111073.59660549124, 0.0, 0.0, 0.0, 0.0, 196.0, 20.5, 72.0, 0.0, 5.0, 82.0, 208.0, 0.0, 0.0, 0.0, 1.71943732477777E9, 0.0, 2024-06-26 16:28:44.777
210.0, -103916.14334775727, -106313.45734756677, -113226.06959653732, -116206.45120220796, -117236.88897334207, -109393.28186431908, -115592.9852238876, -113915.12917460552, -116960.82257757457, -112630.55206901456, -110899.8788475846, -112805.2756554217, -116746.6034587149, -117960.32553438253, -111066.55580598782, 0.0, 0.0, 0.0, 0.0, 196.0, 0.0, 0.0, 0.0, 5.0, 82.0, 216.0, 0.0, 0.0, 0.0, 1.719437324786816E9, 0.0, 2024-06-26 16:28:44.786
212.0, -103882.59337932985, -106285.74118444219, -113201.68384333658, -116183.98769903037, -117216.03479576527, -109372.60650069792, -115573.06981957793, -113894.52086621772, -117045.625096038, -112715.19812526682, -110989.28582540582, -112900.2035141234, -116829.30491319954, -118042.5128987447, -111148.989039539, 0.0, 0.0, 0.0, 0.0, 196.0, 0.0, 0.0, 0.0, 5.0, 82.0, 224.0, 0.0, 0.0, 0.0, 1.719437324794818E9, 0.0, 2024-06-26 16:28:44.794
214.0, -103948.53102547301, -106343.52044385916, -113259.46310275354, -116238.1906793345, -117269.25429931335, -109425.20015540125, -115626.91517197076, -113948.58973605512, -116975.46297019279, -112643.49372905419, -110912.01584482382, -112818.21731546133, -116758.53929025403, -117971.85903452148, -111079.47511428299, 0.0, 0.0, 0.0, 0.0, 196.0, 0.0, 0.0, 0.0, 5.0, 82.0, 232.0, 0.0, 0.0, 0.0, 1.7194373248029E9, 0.0, 2024-06-26 16:28:44.802
216.0, -104012.12173844836, -106413.79432842665, -113331.36866466627, -116313.33724419323, -117345.09376825021, -109501.26314178266, -115701.48059147366, -114023.98217010286, -117137.96015238288, -112807.82375428961, -111083.40902130712, -112993.85732339113, -116921.01412069966, -118137.23959174629, -111242.1511104287, 0.0, 0.0, 0.0, 0.0, 196.0, 125.5, 72.0, 0.0, 5.0, 82.0, 240.0, 0.0, 0.0, 0.0, 1.719437324809848E9, 0.0, 2024-06-26 16:28:44.809
218.0, -104273.50303810871, -106674.99681413136, -113586.46912413469, -116562.29097393644, -117595.20978870509, -109750.37333373706, -115954.01060032971, -114277.38389699267, -117167.82208297517, -112839.25030699377, -111104.71023377303, -113008.00597763134, -116955.6593246054, -118171.50481599628, -111276.57279688989, 0.0, 0.0, 0.0, 0.0, 196.0, 20.5, 72.0, 0.0, 5.0, 82.0, 247.0, 0.0, 0.0, 0.0, 1.719437324819881E9, 0.0, 2024-06-26 16:28:44.819
220.0, -104560.16416074803, -106966.5976722953, -113878.24879625427, -116857.17753853531, -117890.58809168197, -110045.66222973613, -116249.61242075116, -114570.86230169087, -117578.26716640797, -113246.76731190292, -111521.7267300757, -113428.50934606903, -117362.23755624743, -118577.3901435602, -111682.48047619827, 0.0, 0.0, 0.0, 0.0, 196.0, 0.0, 0.0, 0.0, 5.0, 82.5, 127.0, 0.0, 0.0, 0.0, 1.71943732482697E9, 0.0, 2024-06-26 16:28:44.826
222.0, -104640.85395823169, -107039.01732433049, -113956.0999221921, -116935.78862378463, -117968.17099668634, -110122.10519577327, -116323.79786059832, -114644.66776188229, -117737.16571774075, -113408.75040397054, -111672.98098480476, -113575.67323156277, -117526.1876018271, -118741.25078216205, -111846.65403922249, 0.0, 0.0, 0.0, 0.0, 196.0, 0.0, 0.0, 0.0, 5.0, 83.0, 7.0, 0.0, 0.0, 0.0, 1.719437324833994E9, 0.0, 2024-06-26 16:28:44.833
224.0, -104393.88953374501, -106793.10343183321, -113714.07523323003, -116699.06129825847, -117728.18031646972, -109883.94735860197, -116082.75664839229, -114404.47591596555, -117649.74804517605, -113322.2491529285, -111601.00836765867, -113516.37405352284, -117435.64068503866, -118647.28404847193, -111754.4754450888, 0.0, 0.0, 0.0, 0.0, 196.0, 0.0, 0.0, 0.0, 5.0, 83.0, 15.0, 0.0, 0.0, 0.0, 1.719437324841948E9, 0.0, 2024-06-26 16:28:44.841
226.0, -104262.12600018097, -106659.26118603483, -113579.27186242008, -116562.71565708109, -117591.90173052571, -109747.73582789133, -115946.5674694261, -114269.24786201095, -117435.32776061629, -113111.02516782585, -111374.76401028204, -113282.61951000924, -117222.89678131304, -118439.12225235967, -111545.15135826485, 0.0, 0.0, 0.0, 0.0, 196.0, 125.5, 112.0, 0.0, 5.0, 83.0, 23.0, 0.0, 0.0, 0.0, 1.71943732485095E9, 0.0, 2024-06-26 16:28:44.850
228.0, -104323.90622185543, -106722.5389745878, -113642.59435446195, -116622.66303571023, -117653.23491731107, -109809.24782863235, -116010.78403124619, -114332.92798196412, -117367.11023653869, -113040.75128325836, -111317.11886133181, -113230.11526228373, -117152.399379301, -118368.42368464753, -111472.66465099629, 0.0, 0.0, 0.0, 0.0, 196.0, 20.5, 136.0, 0.0, 5.0, 83.0, 31.0, 0.0, 0.0, 0.0, 1.719437324857961E9, 0.0, 2024-06-26 16:28:44.857
230.0, -104423.5502986372, -106822.45127230302, -113743.24425974421, -116722.28476074753, -117755.06946504946, -109910.00949263686, -116112.90915166249, -114434.65077098022, -117470.9787930225, -113142.4070170411, -111406.77170834204, -113311.43090861214, -117258.3242962747, -118475.19796791053, -111580.91414939334, 0.0, 0.0, 0.0, 0.0, 196.0, 0.0, 0.0, 0.0, 5.0, 83.0, 39.0, 0.0, 0.0, 0.0, 1.719437324865962E9, 0.0, 2024-06-26 16:28:44.865
232.0, -104541.94748901695, -106943.6424307397, -113860.9261943014, -116841.41955869432, -117873.35489670694, -110028.16081382762, -116230.8369554087, -114551.97507762612, -117603.74815508701, -113275.17637910561, -111552.10275079045, -113462.70751508565, -117390.71367868349, -118604.43575435111, -111710.26369455621, 0.0, 0.0, 0.0, 0.0, 196.0, 0.0, 0.0, 0.0, 5.0, 83.0, 47.0, 0.0, 0.0, 0.0, 1.719437324875035E9, 0.0, 2024-06-26 16:28:44.875
234.0, -104634.66252501757, -107037.02801907397, -113956.47990184784, -116936.99561798522, -117969.80267403158, -110125.10032953028, -116327.59765715573, -114648.80283460651, -117716.02096748602, -113387.1139153378, -111650.78570256064, -113554.21555688567, -117503.3888224827, -118720.12838365178, -111826.13513781253, 0.0, 0.0, 0.0, 0.0, 196.0, 0.0, 0.0, 0.0, 5.0, 83.0, 55.0, 0.0, 0.0, 0.0, 1.71943732488201E9, 0.0, 2024-06-26 16:28:44.882
236.0, -104495.58997101666, -106889.37239520221, -113814.43456583437, -116799.19711341824, -117828.47259384068, -109984.55256039531, -116183.33949844117, -114504.74584159206, -117705.42624061421, -113375.82628438786, -111655.9042520409, -113567.71601053668, -117492.57057816633, -118705.10801137782, -111811.78531787221, 0.0, 0.0, 0.0, 0.0, 196.0, 126.0, 24.0, 0.0, 5.0, 83.0, 63.0, 0.0, 0.0, 0.0, 1.719437324890012E9, 0.0, 2024-06-26 16:28:44.890
238.0, -104426.12074924956, -106828.39683632813, -113748.65338190239, -116731.60543818539, -117762.91492735327, -109920.06777764176, -116122.14042212254, -114443.70322748461, -117524.2877035484, -113197.28054967888, -111463.8580636809, -113372.27235701948, -117313.13077367912, -118528.75274762545, -111635.47475760875, 0.0, 0.0, 0.0, 0.0, 196.0, 20.0, 208.0, 0.0, 5.0, 83.0, 71.0, 0.0, 0.0, 0.0, 1.719437324898032E9, 0.0, 2024-06-26 16:28:44.898
240.0, -105396.14175512097, -107801.54708642329, -114710.82892546999, -117678.44768505666, -118715.05453766043, -110870.93333851497, -117082.50547438925, -115405.31997744084, -117877.10998977543, -113544.60430676989, -111816.21096327437, -113717.24918094269, -117664.83547268338, -118883.02789724206, -111984.69841297847, 0.0, 0.0, 0.0, 0.0, 196.0, 0.0, 0.0, 0.0, 5.0, 83.0, 79.0, 0.0, 0.0, 0.0, 1.71943732490702E9, 0.0, 2024-06-26 16:28:44.907
242.0, -105865.10370553777, -108276.11932469837, -115188.0386695908, -118162.4970629808, -119198.36630801753, -111354.84860597237, -117563.98440170103, -115885.72602101875, -118792.57038743143, -114460.93642245966, -112727.69275041734, -114627.09929074041, -118584.40859131917, -119800.90228329925, -112905.38911883702, 0.0, 0.0, 0.0, 0.0, 196.0, 0.0, 0.0, 0.0, 5.0, 83.0, 87.0, 0.0, 0.0, 0.0, 1.71943732491405E9, 0.0, 2024-06-26 16:28:44.914
244.0, -106978.24293115652, -109378.90969263432, -116293.71241256148, -119264.5498233497, -120301.06726897566, -112455.87318609635, -118665.09838880283, -116987.9128918544, -119598.39547853416, -115260.45832162599, -113530.74622520761, -115423.49194568301, -119385.51746434183, -120606.14622904613, -113706.29682615958, 0.0, 0.0, 0.0, 0.0, 196.0, 0.0, 0.0, 0.0, 5.0, 83.0, 95.0, 0.0, 0.0, 0.0, 1.719437324922056E9, 0.0, 2024-06-26 16:28:44.922
246.0, -106977.63943405623, -109371.84654138643, -116304.01656675537, -119291.32721320716, -120324.11191750907, -112478.53785497403, -118677.72712442007, -116997.63590069246, -120248.07128287213, -115914.00097775472, -114183.61832900267, -116084.03069782624, -120038.4342716258, -121254.5703356946, -114359.23598518802, 0.0, 0.0, 0.0, 0.0, 196.0, 126.0, 0.0, 0.0, 5.0, 83.0, 103.0, 0.0, 0.0, 0.0, 1.719437324931089E9, 0.0, 2024-06-26 16:28:44.931
248.0, -105893.51277274046, -108280.92494975627, -115214.48078328143, -118207.91580771397, -119234.68789275741, -111388.6891470777, -117581.26230016498, -115900.83580027054, -119435.98770332191, -115113.22738089888, -113396.14402009774, -115319.73514792147, -119226.17187811995, -120434.77540430731, -113546.48185330414, 0.0, 0.0, 0.0, 0.0, 196.0, 20.5, 112.0, 0.0, 5.0, 83.0, 111.0, 0.0, 0.0, 0.0, 1.719437324938174E9, 0.0, 2024-06-26 16:28:44.938
250.0, -105558.88480650006, -107958.81396041083, -114886.5136368887, -117874.8748153299, -118905.15612425283, -111061.75018092993, -117258.95014511945, -115580.44589524817, -118835.21751585216, -114511.76428935103, -112783.30389062213, -114697.77550670809, -118626.40751915069, -119841.49305123009, -112946.22575595687, 0.0, 0.0, 0.0, 0.0, 196.0, 0.0, 0.0, 0.0, 5.0, 83.0, 119.0, 0.0, 0.0, 0.0, 1.719437324946215E9, 0.0, 2024-06-26 16:28:44.946
252.0, -105532.86737595408, -107923.229983238, -114852.22606089426, -117834.93224798827, -118865.77235052257, -111020.77943334336, -117218.33702544415, -115540.59273488435, -118666.88652835925, -114338.0912349333, -112613.16241182834, -114522.44842320067, -118456.93659269054, -119671.91036604767, -112776.68777426337, 0.0, 0.0, 0.0, 0.0, 196.0, 0.0, 0.0, 0.0, 5.0, 83.0, 127.0, 0.0, 0.0, 0.0, 1.71943732495414E9, 0.0, 2024-06-26 16:28:44.954
254.0, -105557.65546055502, -107958.94807087757, -114885.19488396584, -117867.56579489302, -118900.61872012839, -111057.32453552778, -117257.13965381858, -115579.41771500322, -118651.55323166291, -114321.59564752528, -112595.70569940875, -114504.63408286979, -118441.13390936065, -119655.41477863965, -112760.95214616683, 0.0, 0.0, 0.0, 0.0, 196.0, 0.0, 0.0, 0.0, 5.0, 83.0, 135.0, 0.0, 0.0, 0.0, 1.719437324963194E9, 0.0, 2024-06-26 16:28:44.963
0.0, -104641.99389719892, -107018.07373977588, -113964.07949496264, -116959.88380430745, -117986.47707539525, -110140.59008843782, -116327.99998855591, -114647.4617299392, -118423.96776961898, -114096.91591226053, -112376.3680310688, -114290.99610936597, -118213.07906068314, -119424.20833399396, -112535.08776844596, 0.0, 0.0, 0.0, 0.0, 196.0, 0.0, 0.0, 0.0, 5.0, 83.0, 143.0, 0.0, 0.0, 0.0, 1.719437324970242E9, 0.0, 2024-06-26 16:28:44.970
2.0, -103859.03464067396, -106254.8287218605, -113189.09981120823, -116177.08100999368, -117207.51878112779, -109364.40341048282, -115560.30697349393, -113880.39456372197, -117192.90074025402, -112871.68268819842, -111151.55949015135, -113076.4470191535, -116980.87209235098, -118193.92361568495, -111304.06544256992, 0.0, 0.0, 0.0, 0.0, 196.0, 0.0, 0.0, 0.0, 5.0, 83.0, 151.0, 0.0, 0.0, 0.0, 1.719437324978167E9, 0.0, 2024-06-26 16:28:44.978
4.0, -103646.38014392617, -106034.48522502008, -112966.6105469001, -115949.89787934994, -116980.62622316198, -109137.19792809463, -115334.50965100643, -113655.55836624604, -116841.59837264995, -112513.71950074668, -110787.31546250767, -112699.46249717027, -116631.96136140364, -117844.92347775979, -110953.67949648852, 0.0, 0.0, 0.0, 0.0, 196.0, 0.0, 0.0, 0.0, 5.0, 83.0, 159.0, 0.0, 0.0, 0.0, 1.719437324986206E9, 0.0, 2024-06-26 16:28:44.986
6.0, -105058.20573070119, -107475.94922494284, -114377.92204355265, -117334.76726231186, -118376.71618184046, -110536.05950308556, -116754.40421752981, -115079.14097060454, -117059.19260492237, -112722.3506834925, -110993.44324987452, -112894.12383963155, -116847.11925353041, -118064.08233214407, -111164.72466763553, 0.0, 0.0, 0.0, 0.0, 196.0, 126.0, 16.0, 0.0, 5.0, 83.0, 167.0, 0.0, 0.0, 0.0, 1.719437324994222E9, 0.0, 2024-06-26 16:28:44.994
8.0, -103540.54463393029, -105901.69351121111, -112870.07336259764, -115886.41892509686, -116904.7420507362, -109060.06205797936, -115231.73633000093, -113550.79573998401, -118258.34134320515, -113924.40514855448, -112206.47242146403, -114115.17728748052, -118048.25729706971, -119258.55955583567, -112369.84132168787, 0.0, 0.0, 0.0, 0.0, 196.0, 20.5, 120.0, 0.0, 5.0, 83.0, 175.0, 0.0, 0.0, 0.0, 1.719437325002231E9, 0.0, 2024-06-26 16:28:45.002
10.0, -102055.74060150869, -104444.18095876944, -111382.36360339685, -114376.26801446296, -115401.36371867225, -107561.01996433974, -113751.49205344821, -112072.87604485465, -115507.33333913486, -111192.03849935991, -109478.73258337172, -111418.21580150316, -115293.62831039767, -116503.77410695245, -109615.72642513829, 0.0, 0.0, 0.0, 0.0, 196.0, 0.0, 0.0, 0.0, 5.0, 83.0, 183.0, 0.0, 0.0, 0.0, 1.719437325010254E9, 0.0, 2024-06-26 16:28:45.010
12.0, -101874.62441618735, -104262.99771821473, -111194.92187439465, -114177.76217195537, -115207.66350122256, -107365.35279337798, -113560.51874882207, -111883.24384489583, -115044.38400797654, -110717.68977852938, -108988.06708908881, -110900.45999294044, -114834.00938916318, -116047.95498227538, -109153.49234980255, 0.0, 0.0, 0.0, 0.0, 196.0, 0.0, 0.0, 0.0, 5.0, 83.0, 191.0, 0.0, 0.0, 0.0, 1.719437325020304E9, 0.0, 2024-06-26 16:28:45.020
14.0, -101813.42533986871, -104207.47598498774, -111138.81899581183, -114120.25113347187, -115151.80649182874, -107309.96517061772, -113506.27106502904, -111829.01851284725, -114960.52026278024, -110629.9144780534, -108912.29467538533, -110825.08991063714, -114746.65877183185, -115961.5207864667, -109066.45465689358, 0.0, 0.0, 0.0, 0.0, 196.0, 0.0, 0.0, 0.0, 5.0, 83.0, 199.0, 0.0, 0.0, 0.0, 1.719437325027342E9, 0.0, 2024-06-26 16:28:45.027
16.0, -101799.81312749544, -104189.32636849003, -111119.82001302482, -114099.62047333962, -115132.85221253065, -107290.0721180525, -113488.1438002758, -111809.81836436015, -114911.01114881173, -110580.20419838479, -108850.17917754402, -110756.26888945924, -114700.23419859818, -115915.8114690556, -109020.49947029346, 0.0, 0.0, 0.0, 0.0, 196.0, 126.0, 24.0, 0.0, 5.0, 83.0, 207.0, 0.0, 0.0, 0.0, 1.719437325034322E9, 0.0, 2024-06-26 16:28:45.034
