%OpenBCI Raw EXG Data
%Number of channels = 16
%Sample Rate = 125 Hz
%Board = OpenBCI_GUI$BoardCytonSerialDaisy
Sample Index, EXG Channel 0, EXG Channel 1, EXG Channel 2, EXG Channel 3, EXG Channel 4, EXG Channel 5, EXG Channel 6, EXG Channel 7, EXG Channel 8, EXG Channel 9, EXG Channel 10, EXG Channel 11, EXG Channel 12, EXG Channel 13, EXG Channel 14, EXG Channel 15, Accel Channel 0, Accel Channel 1, Accel Channel 2, Other, Other, Other, Other, Other, Other, Other, Analog Channel 0, Analog Channel 1, Analog Channel 2, Timestamp, Other, Timestamp (Formatted)
0.0, -94476.800498581, -97172.0856037242, -104413.58142061012, -107090.20281913315, -108027.25500193298, -100412.97679102144, -106532.25857403978, -104784.9780064795, 0.0, 0.0, 0.0, 0.0, 0.0, 0.0, 0.0, 0.0, 0.0, 0.0, 0.0, 196.0, 124.5, 24.0, 0.0, 5.0, 63.0, 64.5, 0.0, 0.0, 0.0, 1.719437668968463E9, 0.0, 2024-06-26 16:34:28.968
0.0, -47112.403465795935, -48475.25638046937, -52094.495546161605, -53442.10457111652, -53911.46885293351, -50105.59262103947, -53156.2481112776, -52292.86727820245, -53856.03652668435, -51800.01131296293, -50924.11350299281, -51829.962650533045, -53789.60714216318, -54438.00889706718, -50887.88132523076, -51295.979475495755, 0.0, 0.0, 0.0, 196.0, 0.0, 0.0, 0.0, 10.0, 147.0, 192.5, 0.0, 0.0, 0.0, 1.719437669079351E9, 0.0, 2024-06-26 16:34:29.079
2.0, -94218.95077454457, -96948.50110393777, -104188.14172603391, -106882.7786305879, -107824.43527274553, -100211.22994556784, -106312.31740859956, -104585.57809419371, -107503.3748153895, -103391.83847806913, -101617.28878227339, -103476.64099653257, -107370.0466597136, -108653.30501238168, -101569.85838053923, -102371.68250938447, 0.0, 0.0, 0.0, 196.0, 0.0, 0.0, 0.0, 10.0, 147.0, 205.0, 0.0, 0.0, 0.0, 1.719437669085437E9, 0.0, 2024-06-26 16:34:29.085
4.0, -94217.67672511062, -96946.28828123669, -104185.37010972144, -106879.60468287524, -107821.32838026625, -100207.63131471054, -106308.83053646452, -104582.02416682531, -107494.79174551865, -103384.5071058878, -101606.06820655683, -103459.22898760188, -107365.06222070006, -108648.32057336815, -101566.86324678222, -102361.89244531303, 0.0, 0.0, 0.0, 196.0, 0.0, 0.0, 0.0, 10.0, 147.0, 213.0, 0.0, 0.0, 0.0, 1.719437669092346E9, 0.0, 2024-06-26 16:34:29.092
6.0, -94217.87789081072, -96946.51179868124, -104187.06884230004, -106881.83985732078, -107823.4517959895, -100209.88884090053, -106310.99865567668, -104584.6840244155, -107496.89280949745, -103388.3069024452, -101612.79608163788, -103473.69056626447, -107364.68224104431, -108651.0474861917, -101565.63390083717, -102367.99447154933, 0.0, 0.0, 0.0, 196.0, 125.5, 0.0, 0.0, 10.0, 147.0, 221.0, 0.0, 0.0, 0.0, 1.71943766910035E9, 0.0, 2024-06-26 16:34:29.100
8.0, -94217.27439371042, -96944.83541784709, -104186.42064171084, -106880.61051137574, -107822.35656051118, -100208.43597751093, -106309.83636496501, -104583.3876232371, -107498.30096939814, -103384.9988442658, -101607.29755250187, -103461.64297600306, -107365.55395907808, -108649.7957885022, -101567.84672353826, -102363.18884649145, 0.0, 0.0, 0.0, 196.0, 18.0, 168.0, 0.0, 10.0, 147.0, 229.0, 0.0, 0.0, 0.0, 1.719437669107364E9, 0.0, 2024-06-26 16:34:29.107
10.0, -94218.6378501222, -96946.46709519233, -104188.34289173399, -106883.06920326581, -107824.54703146781, -100210.76055893429, -106312.02683592163, -104586.00277733836, -107501.34080664406, -103390.83264956865, -101615.70180841707, -103478.29502562225, -107366.80565676757, -108653.93086122643, -101568.49492412746, -102370.98960530634, 0.0, 0.0, 0.0, 196.0, 0.0, 0.0, 0.0, 10.0, 147.0, 237.0, 0.0, 0.0, 0.0, 1.719437669115439E9, 0.0, 2024-06-26 16:34:29.115
12.0, -94212.491120397, -96935.89472006497, -104181.90558933087, -106875.04492700637, -107818.13208080914, -100203.60800070858, -106305.3883678184, -104579.31960574623, -107493.22712340679, -103378.2486174403, -101602.35781697725, -103458.06669689021, -107359.29547063059, -108644.25255587728, -101563.71165081402, -102358.7632010893, 0.0, 0.0, 0.0, 196.0, 0.0, 0.0, 0.0, 10.0, 147.0, 245.0, 0.0, 0.0, 0.0, 1.719437669124438E9, 0.0, 2024-06-26 16:34:29.124
14.0, -94218.36962918873, -96950.60216791656, -104190.30984524607, -106884.14208699967, -107826.58104021323, -100212.3475327906, -106313.43499582232, -104587.25447502786, -107498.83741126508, -103389.22332396786, -101614.67362817212, -103476.73040351039, -107366.67154630084, -108652.50034958129, -101568.18199970508, -102369.93907331694, 0.0, 0.0, 0.0, 196.0, 0.0, 0.0, 0.0, 10.0, 147.0, 253.0, 0.0, 0.0, 0.0, 1.719437669132461E9, 0.0, 2024-06-26 16:34:29.132
16.0, -94208.24428895049, -96939.73922011128, -104181.63736839741, -106874.75435432844, -107818.44500523151, -100203.33977977512, -106305.05309165157, -104578.89492260158, -107493.87532399599, -103383.0542424982, -101604.72710188951, -103460.79360971376, -107363.05056369909, -108648.25351813478, -101567.39968864915, -102362.3618319466, 0.0, 0.0, 0.0, 196.0, 126.0, 24.0, 0.0, 10.0, 148.0, 5.0, 0.0, 0.0, 0.0, 1.719437669139424E9, 0.0, 2024-06-26 16:34:29.139
18.0, -94214.7933500759, -96943.58372015759, -104185.16894402134, -106879.04588926386, -107820.0990343212, -100206.46902399887, -106307.31061784156, -104581.77829763631, -107492.17659141739, -103382.42839365345, -101607.25284901296, -103468.92964469548, -107359.31782237504, -108645.37014310005, -101561.02944147939, -102362.33948020215, 0.0, 0.0, 0.0, 196.0, 17.5, 152.0, 0.0, 10.0, 148.0, 13.0, 0.0, 0.0, 0.0, 1.719437669147447E9, 0.0, 2024-06-26 16:34:29.147
20.0, -94221.49887341248, -96950.80333361666, -104195.71896740425, -106887.04781377886, -107831.40901701558, -100216.41555028148, -106318.21826913576, -104592.26126578586, -107498.99387347625, -103386.18348672194, -101609.46567171403, -103465.68864174947, -107365.844531756, -108650.89102398051, -101570.39482240616, -102366.02751803727, 0.0, 0.0, 0.0, 196.0, 0.0, 0.0, 0.0, 10.0, 148.0, 21.0, 0.0, 0.0, 0.0, 1.719437669156462E9, 0.0, 2024-06-26 16:34:29.156
22.0, -94218.97312628903, -96945.99770855877, -104189.10285104548, -106882.80098233235, -107823.78707215632, -100210.49233800083, -106310.41751032085, -104585.2875215158, -107509.70035907035, -103398.49929791682, -101624.15076782118, -103484.48645883639, -107375.18756093831, -108661.06106770768, -101577.56973237632, -102378.6115501656, 0.0, 0.0, 0.0, 196.0, 0.0, 0.0, 0.0, 10.0, 148.0, 29.0, 0.0, 0.0, 0.0, 1.719437669163476E9, 0.0, 2024-06-26 16:34:29.163
24.0, -94188.10536719626, -96919.68970533488, -104163.30893794405, -106856.13535119717, -107799.58013291123, -100185.43603246642, -106285.89764665338, -104560.79000959278, -107480.93366395637, -103368.21268417987, -101591.8301453388, -103449.2154060859, -107346.86790071343, -108633.30020109419, -101551.6640605526, -102349.59898586261, 0.0, 0.0, 0.0, 196.0, 0.0, 0.0, 0.0, 10.0, 148.0, 37.0, 0.0, 0.0, 0.0, 1.719437669171469E9, 0.0, 2024-06-26 16:34:29.171
26.0, -94209.94302152909, -96937.68285962139, -104180.96681606375, -106874.03909850588, -107815.22635402995, -100202.28924778572, -106302.01325440565, -104577.5314661898, -107482.07360292358, -103370.11258245858, -101595.45112794056, -103455.94328116695, -107346.91260420236, -108633.81429121665, -101549.98767971847, -102350.78362831875, 0.0, 0.0, 0.0, 196.0, 126.0, 64.0, 0.0, 10.0, 148.0, 45.0, 0.0, 0.0, 0.0, 1.719437669179574E9, 0.0, 2024-06-26 16:34:29.179
28.0, -94199.63886733519, -96930.61970837352, -104175.22241773874, -106866.12658096869, -107811.2477435169, -100196.47779422735, -106296.76059445865, -104572.14469577608, -107490.47785883879, -103377.13103021754, -101601.64256115467, -103460.16776086901, -107356.34504036249, -108641.68210526492, -101561.0741449683, -102358.98671853385, 0.0, 0.0, 0.0, 196.0, 17.5, 96.0, 0.0, 10.0, 148.0, 53.0, 0.0, 0.0, 0.0, 1.71943766918759E9, 0.0, 2024-06-26 16:34:29.187
30.0, -94208.84778605078, -96937.03465903219, -104180.25156024117, -106871.93803452708, -107813.77349064035, -100200.67992218494, -106299.6439694934, -104575.25158825537, -107488.08622218207, -103374.42646913845, -101599.51914543142, -103458.93841492396, -107350.10890365946, -108636.63061101802, -101554.07804895379, -102354.53872138725, 0.0, 0.0, 0.0, 196.0, 0.0, 0.0, 0.0, 10.0, 148.0, 61.0, 0.0, 0.0, 0.0, 1.71943766919551E9, 0.0, 2024-06-26 16:34:29.195
32.0, -94207.05964649435, -96935.5817956426, -104184.07370854303, -106874.19556071707, -107819.6519994321, -100204.59147746462, -106304.13667012891, -104579.52077144633, -107490.90254198344, -103380.01440525228, -101604.12360478922, -103462.58174927018, -107356.72502001823, -108644.23020413282, -101561.23060717949, -102360.50663715681, 0.0, 0.0, 0.0, 196.0, 0.0, 0.0, 0.0, 10.0, 148.0, 69.0, 0.0, 0.0, 0.0, 1.719437669203607E9, 0.0, 2024-06-26 16:34:29.203
34.0, -94214.41337042015, -96944.50014168027, -104187.11354578896, -106878.50944739694, -107821.01545584387, -100207.31839028817, -106305.92480968534, -104582.09122205869, -107493.04830945114, -103383.9483122764, -101608.0351600689, -103467.36502258362, -107359.92131947534, -108647.67237277895, -101564.15868570312, -102363.47941916937, 0.0, 0.0, 0.0, 196.0, 0.0, 0.0, 0.0, 10.0, 148.0, 77.0, 0.0, 0.0, 0.0, 1.71943766921258E9, 0.0, 2024-06-26 16:34:29.212
36.0, -94205.11504472674, -96937.30287996566, -104182.6431968979, -106872.6756420941, -107818.62381918715, -100203.20566930839, -106302.68380673931, -104578.55964643475, -107495.1717251744, -103385.42352741046, -101608.63865716918, -103468.59436852866, -107361.0389066981, -108648.58879430161, -101565.6786043261, -102365.89340757053, 0.0, 0.0, 0.0, 196.0, 126.0, 104.0, 0.0, 10.0, 148.0, 85.0, 0.0, 0.0, 0.0, 1.719437669219588E9, 0.0, 2024-06-26 16:34:29.219
38.0, -94208.6913238396, -96936.69938286536, -104182.55378992007, -106873.54736012785, -107816.52275520835, -100202.64687569701, -106301.16388811635, -104578.3808324791, -107490.18728616087, -103379.07563198515, -101602.89425884417, -103461.6206242586, -107355.31686011754, -108642.46441632086, -101560.09066821226, -102358.91966330048, 0.0, 0.0, 0.0, 196.0, 17.0, 160.0, 0.0, 10.0, 148.0, 93.0, 0.0, 0.0, 0.0, 1.719437669227615E9, 0.0, 2024-06-26 16:34:29.227
40.0, -94202.96927725904, -96935.04535377567, -104181.05622304157, -106870.66398509312, -107816.9027348641, -100201.28341928523, -106300.2921700826, -104577.46441095644, -107494.54587632965, -103382.0484139977, -101607.20814552405, -103468.28144410628, -107358.2896421301, -108645.77247450025, -101562.68347056907, -102363.92645405847, 0.0, 0.0, 0.0, 196.0, 0.0, 0.0, 0.0, 10.0, 148.0, 101.0, 0.0, 0.0, 0.0, 1.7194376692356E9, 0.0, 2024-06-26 16:34:29.235
42.0, -94203.52807087041, -96933.61484213053, -104178.48577242921, -106869.05465949234, -107813.1476417956, -100198.35534076158, -106296.35826305846, -104574.71514638844, -107486.20867564782, -103373.28653017123, -101597.35102621926, -103454.40101079954, -107350.55593854857, -108636.7423697403, -101555.64267106565, -102352.99645101982, 0.0, 0.0, 0.0, 196.0, 0.0, 0.0, 0.0, 10.0, 148.0, 109.0, 0.0, 0.0, 0.0, 1.719437669243657E9, 0.0, 2024-06-26 16:34:29.243
44.0, -94198.8342045348, -96932.72077235232, -104178.93280731831, -106868.65232809214, -107814.89107786311, -100199.38352100653, -106297.43114679231, -104575.58686442219, -107490.79078326117, -103379.7461843188, -101604.52593618941, -103465.75569698283, -107355.56272930655, -108643.4478930769, -101559.80009553435, -102361.17718949047, 0.0, 0.0, 0.0, 196.0, 0.0, 0.0, 0.0, 10.0, 148.0, 117.0, 0.0, 0.0, 0.0, 1.719437669251665E9, 0.0, 2024-06-26 16:34:29.251
46.0, -94182.3833206157, -96910.19021394137, -104157.47513264122, -106848.13342668218, -107791.82407758523, -100177.50116318479, -106274.587663959, -104553.63745136709, -107481.31364361211, -103365.10579170058, -101590.42198543811, -103446.667307218, -107344.34215358998, -108629.43334930342, -101548.82538900679, -102345.88859628304, 0.0, 0.0, 0.0, 196.0, 126.5, 0.0, 0.0, 10.0, 148.0, 125.0, 0.0, 0.0, 0.0, 1.719437669259687E9, 0.0, 2024-06-26 16:34:29.259
48.0, -94175.52133506791, -96907.73152205128, -104153.56357736154, -106843.50661557993, -107789.65595837307, -100174.12604977204, -106271.6819371798, -104550.66466935452, -107460.32535556858, -103349.5489775597, -101574.52989513038, -103437.83836815815, -107325.38787429189, -108612.87070666203, -101528.57470853027, -102331.78464553173, 0.0, 0.0, 0.0, 196.0, 17.0, 200.0, 0.0, 10.0, 148.0, 133.0, 0.0, 0.0, 0.0, 1.719437669267767E9, 0.0, 2024-06-26 16:34:29.267
50.0, -94164.54662854035, -96897.60618181303, -104141.8289115225, -106832.46485381901, -107777.56366462275, -100162.12316299953, -106258.89673935137, -104538.61707909312, -107458.85014043453, -103348.16316940346, -101570.90891252863, -103427.73537966436, -107326.10313011445, -108612.06604386165, -101531.74865624293, -102328.61069781908, 0.0, 0.0, 0.0, 196.0, 0.0, 0.0, 0.0, 10.0, 148.0, 141.0, 0.0, 0.0, 0.0, 1.719437669274787E9, 0.0, 2024-06-26 16:34:29.274
52.0, -94159.8751139492, -96891.66061778791, -104139.43727486579, -106829.49207180645, -107775.30613843276, -100159.37389843153, -106255.78984687208, -104535.66664882502, -107448.83655891856, -103339.9377274439, -101564.71747931451, -103428.00360059782, -107313.85437415296, -108601.9854071123, -101518.09174038074, -102321.63695354902, 0.0, 0.0, 0.0, 196.0, 0.0, 0.0, 0.0, 10.0, 148.0, 149.0, 0.0, 0.0, 0.0, 1.719437669283726E9, 0.0, 2024-06-26 16:34:29.283
54.0, -94151.62732024518, -96882.7199200058, -104130.25070789465, -106818.89734493464, -107765.06903947223, -100149.136799471, -106245.1280647669, -104525.16132893102, -107441.08050359256, -103328.58304126062, -101551.4181913636, -103407.59645791013, -107306.6794641828, -108591.74830815177, -101511.54267925533, -102308.60588653159, 0.0, 0.0, 0.0, 196.0, 0.0, 0.0, 0.0, 10.0, 148.0, 157.0, 0.0, 0.0, 0.0, 1.719437669291746E9, 0.0, 2024-06-26 16:34:29.291
56.0, -94164.03253841789, -96898.41084461342, -104145.40519063536, -106833.87301371968, -107780.0894117462, -100164.38068918952, -106259.83551261849, -104540.51697737182, -107446.95901238431, -103335.75795123077, -101560.76122054592, -103423.22032728438, -107311.14981307386, -108597.67152043243, -101513.95666765652, -102316.4960523243, 0.0, 0.0, 0.0, 196.0, 126.5, 48.0, 0.0, 10.0, 148.0, 165.0, 0.0, 0.0, 0.0, 1.71943766929982E9, 0.0, 2024-06-26 16:34:29.299
58.0, -94171.9227042106, -96905.25047841674, -104152.84832153897, -106841.1149789232, -107787.33137694972, -100171.71206137087, -106266.585739444, -104548.2283292089, -107458.62662298998, -103344.83275947961, -101567.84672353826, -103423.9132313625, -107325.09730161398, -108609.16031708245, -101529.69229575305, -102325.54850882871, 0.0, 0.0, 0.0, 196.0, 17.5, 112.0, 0.0, 10.0, 148.0, 173.0, 0.0, 0.0, 0.0, 1.719437669307853E9, 0.0, 2024-06-26 16:34:29.307
60.0, -94165.19482912956, -96898.90258299143, -104146.61218483595, -106835.77291199839, -107781.16229548006, -100165.58768339011, -106259.29907075156, -104541.7239715724, -107459.87832067948, -103351.2924136272, -101575.91570328662, -103439.3135832922, -107327.06425512604, -108613.18363108441, -101529.89346145315, -102332.96928798787, 0.0, 0.0, 0.0, 196.0, 0.0, 0.0, 0.0, 10.0, 148.0, 181.0, 0.0, 0.0, 0.0, 1.719437669315873E9, 0.0, 2024-06-26 16:34:29.315
62.0, -94159.42807906009, -96893.2252398998, -104142.11948420042, -106829.76029273991, -107776.17785646653, -100160.33502344311, -106252.54884392607, -104536.53836685877, -107448.09895135152, -103335.62384076403, -101558.19076993356, -103415.41956846949, -107314.05553985304, -108599.16908731093, -101519.54460377034, -102316.63016279104, 0.0, 0.0, 0.0, 196.0, 0.0, 0.0, 0.0, 10.0, 148.0, 189.0, 0.0, 0.0, 0.0, 1.719437669323871E9, 0.0, 2024-06-26 16:34:29.323
64.0, -94176.23659089049, -96909.38555114098, -104157.49748438568, -106846.65821154813, -107791.28763571831, -100176.00359630628, -106266.80925688855, -104552.78808507777, -107459.90067242393, -103348.43139033692, -101574.30637768583, -103436.3631530241, -107325.41022603634, -108610.68023570541, -101526.98773467395, -102329.95180248641, 0.0, 0.0, 0.0, 196.0, 0.0, 0.0, 0.0, 10.0, 148.0, 197.0, 0.0, 0.0, 0.0, 1.719437669331842E9, 0.0, 2024-06-26 16:34:29.331
66.0, -94163.6749105066, -96898.61201031352, -104146.70159181376, -106834.09653116424, -107781.45286815797, -100164.53715140071, -106251.92299508132, -104540.919308772, -107461.57705325808, -103347.4926170698, -101571.19948520655, -103427.75773140881, -107328.22654583771, -108611.70841595036, -101531.74865624293, -102329.12478794156, 0.0, 0.0, 0.0, 196.0, 127.0, 24.0, 0.0, 10.0, 148.0, 205.0, 0.0, 0.0, 0.0, 1.719437669339854E9, 0.0, 2024-06-26 16:34:29.339
68.0, -94164.14429714017, -96898.79082426916, -104146.76864704712, -106835.50469106493, -107781.07288850224, -100164.58185488962, -106248.43612294628, -104541.3216401722, -107457.12905611147, -103344.60924203506, -101570.30541542833, -103431.84810064413, -107321.72218820122, -108606.45575600336, -101523.45615905001, -102325.86143325108, 0.0, 0.0, 0.0, 196.0, 17.5, 64.0, 0.0, 10.0, 148.0, 213.0, 0.0, 0.0, 0.0, 1.71943766934794E9, 0.0, 2024-06-26 16:34:29.347
70.0, -94156.50000053644, -96892.15235616594, -104141.06895221102, -106828.17331888358, -107776.02139425534, -100159.06097400916, -106242.71407636572, -104535.48783486937, -107449.59651823003, -103338.8871954545, -101561.36471764621, -103419.17466153797, -107317.74357768818, -108601.67248268992, -101522.29386833834, -102320.42995934845, 0.0, 0.0, 0.0, 196.0, 0.0, 0.0, 0.0, 10.0, 148.0, 221.0, 0.0, 0.0, 0.0, 1.719437669354898E9, 0.0, 2024-06-26 16:34:29.354
72.0, -94161.10445989424, -96894.87926898948, -104142.29829815606, -106830.69906600703, -107775.4849523884, -100160.55854088767, -106242.44585543226, -104536.51601511432, -107448.45657926281, -103338.77543673223, -101563.35402290274, -103424.94141160745, -107315.44134800928, -108600.91252337844, -101516.8623944357, -102320.27349713726, 0.0, 0.0, 0.0, 196.0, 0.0, 0.0, 0.0, 10.0, 148.0, 229.0, 0.0, 0.0, 0.0, 1.719437669362908E9, 0.0, 2024-06-26 16:34:29.362
74.0, -94153.66132899062, -96888.1737456529, -104138.99023997669, -106825.5134612934, -107773.92033027654, -100157.22813096382, -106239.33896295297, -104533.16325344602, -107451.67523046437, -103339.37893383253, -101562.68347056907, -103420.3146005052, -107318.32472304402, -108602.34303502359, -101520.9080601821, -102321.21227040437, 0.0, 0.0, 0.0, 196.0, 0.0, 0.0, 0.0, 10.0, 148.0, 237.0, 0.0, 0.0, 0.0, 1.719437669371999E9, 0.0, 2024-06-26 16:34:29.371
76.0, -94149.61566324421, -96883.39047233945, -104131.63651605089, -106819.29967633482, -107764.86787377213, -100149.00268900428, -106230.59943087095, -104524.89310799756, -107443.02510536017, -103331.6899337399, -101556.53674084386, -103416.78302488125, -107308.04292059457, -108593.06706107463, -101510.17922284357, -102312.58449704463, 0.0, 0.0, 0.0, 196.0, 127.0, 48.0, 0.0, 10.0, 148.0, 245.0, 0.0, 0.0, 0.0, 1.719437669378941E9, 0.0, 2024-06-26 16:34:29.378
78.0, -94136.94222413805, -96874.24860885723, -104123.56753630252, -106809.53196400785, -107758.00588822436, -100140.97841274482, -106222.91043077833, -104516.80177650474, -107437.79479715762, -103324.42561679192, -101547.99837446194, -103406.07653928717, -107303.4831647257, -108586.36153773803, -101505.50770825241, -102305.81191847468, 0.0, 0.0, 0.0, 196.0, 17.5, 128.0, 0.0, 10.0, 148.0, 253.0, 0.0, 0.0, 0.0, 1.719437669386957E9, 0.0, 2024-06-26 16:34:29.386
80.0, -94138.0151078719, -96871.45464080032, -104120.30418161204, -106807.16267909559, -107753.24496665537, -100137.15626444297, -106218.64124758737, -104513.2702008808, -107428.31765750858, -103317.36246554405, -101541.31520286981, -103400.93563806244, -107295.21301927723, -108578.65018590096, -101496.209382559, -102297.63118000403, 0.0, 0.0, 0.0, 196.0, 0.0, 0.0, 0.0, 10.0, 149.0, 5.0, 0.0, 0.0, 0.0, 1.719437669395947E9, 0.0, 2024-06-26 16:34:29.395
82.0, -94130.66138394612, -96868.66067274341, -104117.48786181067, -106803.00525462691, -107751.70269628796, -100134.63051731951, -106216.67429407529, -104511.14678515754, -107426.66362841889, -103317.7424451998, -101539.66117378011, -103399.21455373938, -107294.49776345465, -108578.44902020086, -101496.70112093701, -102297.51942128176, 0.0, 0.0, 0.0, 196.0, 0.0, 0.0, 0.0, 10.0, 149.0, 13.0, 0.0, 0.0, 0.0, 1.71943766940404E9, 0.0, 2024-06-26 16:34:29.404
84.0, -94131.48839849095, -96864.74911746373, -104113.88923095337, -106799.40662376961, -107746.00300145186, -100129.7354852838, -106210.90754400582, -104505.9611804439, -107423.86966036198, -103312.84741316408, -101536.08489466726, -103395.28064671525, -107290.09446979695, -108573.55398816515, -101491.78373715685, -102292.08794737911, 0.0, 0.0, 0.0, 196.0, 0.0, 0.0, 0.0, 10.0, 149.0, 21.0, 0.0, 0.0, 0.0, 1.719437669411002E9, 0.0, 2024-06-26 16:34:29.411
86.0, -94122.77121815339, -96861.59752149553, -104112.16814663031, -106796.43384175705, -107746.31592587424, -100128.4837875943, -106210.54991609453, -104504.79888973224, -107420.18162252684, -103307.70651193935, -101531.10045565372, -103391.52555364676, -107285.17708601679, -108567.65312762895, -101486.28520802084, -102287.97522639934, 0.0, 0.0, 0.0, 196.0, 127.0, 80.0, 0.0, 10.0, 149.0, 29.0, 0.0, 0.0, 0.0, 1.719437669419034E9, 0.0, 2024-06-26 16:34:29.419
88.0, -94130.59432871274, -96864.34678606353, -104114.29156235357, -106800.12187959217, -107747.25469914135, -100131.16599692893, -106212.11453820641, -104507.50345081133, -107421.58978242753, -103311.17103232993, -101533.20151963252, -103391.27968445775, -107290.40739421934, -108572.30229047565, -101491.31435052329, -102290.23275258932, 0.0, 0.0, 0.0, 196.0, 17.5, 120.0, 0.0, 10.0, 149.0, 37.0, 0.0, 0.0, 0.0, 1.719437669428086E9, 0.0, 2024-06-26 16:34:29.428
90.0, -94117.51855820639, -96857.23893132675, -104107.09430063896, -106792.32112077727, -107741.48794907189, -100124.6839910369, -106205.81134627001, -104500.73087224137, -107417.94644808132, -103311.2827910522, -101532.4639120655, -103394.87831531506, -107286.02645230609, -108570.80472359715, -101488.43097548855, -102290.90330492298, 0.0, 0.0, 0.0, 196.0, 0.0, 0.0, 0.0, 10.0, 149.0, 45.0, 0.0, 0.0, 0.0, 1.719437669435058E9, 0.0, 2024-06-26 16:34:29.435
92.0, -94117.18328203956, -96854.19909408082, -104102.57924825899, -106788.23075154195, -107735.20710887994, -100119.56544155664, -106200.0222444561, -104496.05935765021, -107408.51401192117, -103299.2799042797, -101520.0586938928, -103378.62859709605, -107276.61636789041, -108560.23234846978, -101479.62438817315, -102278.1851623279, 0.0, 0.0, 0.0, 196.0, 0.0, 0.0, 0.0, 10.0, 149.0, 53.0, 0.0, 0.0, 0.0, 1.719437669443072E9, 0.0, 2024-06-26 16:34:29.443
94.0, -94112.0200290704, -96851.1592568349, -104101.12638486939, -106786.28614977434, -107734.55890829074, -100118.69372352287, -106198.52467757759, -104494.33827332716, -107411.71031137828, -103302.76677641473, -101524.4172840616, -103386.8093355667, -107278.20334174673, -108562.60163338204, -101479.11029805068, -102282.43199377441, 0.0, 0.0, 0.0, 196.0, 0.0, 0.0, 0.0, 10.0, 149.0, 61.0, 0.0, 0.0, 0.0, 1.719437669452088E9, 0.0, 2024-06-26 16:34:29.452
96.0, -94114.7692936384, -96853.2603208137, -104100.70170172474, -106785.3026730183, -107732.56960303422, -100117.46437757784, -106197.18357291026, -104493.57831401567, -107405.27300897516, -103295.30129376666, -101515.72245546848, -103373.62180633805, -107272.52599865508, -108556.09727574555, -101475.24344625992, -102274.07244134814, 0.0, 0.0, 0.0, 196.0, 127.0, 88.0, 0.0, 10.0, 149.0, 69.0, 0.0, 0.0, 0.0, 1.719437669460135E9, 0.0, 2024-06-26 16:34:29.460
98.0, -94109.62839241367, -96849.08054460055, -104099.0700243795, -106783.17925729505, -107731.42966406699, -100116.0785694216, -106195.70835777621, -104491.87958143707, -107412.51497417867, -103303.10205258157, -101524.2161183615, -103387.0999082446, -107278.02452779109, -108561.75226709274, -101477.97035908347, -102281.8955519075, 0.0, 0.0, 0.0, 196.0, 17.0, 216.0, 0.0, 10.0, 149.0, 77.0, 0.0, 0.0, 0.0, 1.719437669467122E9, 0.0, 2024-06-26 16:34:29.467
100.0, -94107.95201157952, -96843.67142244238, -104093.70560571023, -106776.56314093628, -107725.01471340832, -100109.75302574075, -106189.33811060645, -104485.39757554502, -107401.09323276201, -103290.40626173095, -101509.91100191009, -103368.03387022423, -107268.3685741864, -108549.81643555361, -101469.78962061282, -102268.39509825649, 0.0, 0.0, 0.0, 196.0, 0.0, 0.0, 0.0, 10.0, 149.0, 85.0, 0.0, 0.0, 0.0, 1.719437669475211E9, 0.0, 2024-06-26 16:34:29.475
102.0, -94104.80041561132, -96845.61602420999, -104094.57732374399, -106778.28422525934, -107726.75814947583, -100111.54116529718, -106191.19330539624, -104487.52099126828, -107403.03783452962, -103294.94366585538, -101515.96832465749, -103380.19321920791, -107270.00025153164, -108552.74451407726, -101469.74491712391, -102273.7371651813, 0.0, 0.0, 0.0, 196.0, 0.0, 0.0, 0.0, 10.0, 149.0, 93.0, 0.0, 0.0, 0.0, 1.719437669484233E9, 0.0, 2024-06-26 16:34:29.484
104.0, -94102.38642721015, -96841.72682067477, -104089.39171903035, -106772.94215833452, -107721.48313778438, -100106.19909837235, -106185.87359021588, -104482.5142005103, -107397.6510641159, -103288.39460472997, -101506.29001930833, -103364.59170157812, -107266.82630381899, -108547.49185413026, -101468.26970198986, -102266.09286857759, 0.0, 0.0, 0.0, 196.0, 0.0, 0.0, 0.0, 10.0, 149.0, 101.0, 0.0, 0.0, 0.0, 1.719437669491186E9, 0.0, 2024-06-26 16:34:29.491
106.0, -94095.27857247337, -96834.37309674897, -104084.00494861662, -106768.449457699, -107716.16342260402, -100101.23701110328, -106180.59857852443, -104477.32859579666, -107396.91345654888, -103289.53454369718, -101509.28515306534, -103373.77826854924, -107263.94292878425, -108546.77659830768, -101463.50878042087, -102267.36691801154, 0.0, 0.0, 0.0, 196.0, 127.0, 72.0, 0.0, 10.0, 149.0, 109.0, 0.0, 0.0, 0.0, 1.719437669499196E9, 0.0, 2024-06-26 16:34:29.499
108.0, -94088.41658692558, -96829.03102982415, -104078.12643982487, -106760.98397505093, -107709.41319577851, -100094.68794997787, -106174.02716565457, -104471.38303177155, -107384.79881105409, -103275.4752964348, -101492.36488251269, -103351.80650374967, -107252.85646353442, -108534.43843536836, -101454.36691693866, -102252.70417364886, 0.0, 0.0, 0.0, 196.0, 17.5, 112.0, 0.0, 10.0, 149.0, 117.0, 0.0, 0.0, 0.0, 1.719437669507276E9, 0.0, 2024-06-26 16:34:29.507
110.0, -94106.27563074537, -96846.26422479919, -104094.6667307218, -106777.99365258143, -107724.76884421932, -100110.89296470798, -106189.47222107319, -104486.80573544571, -107398.7015961053, -103290.04863381966, -101508.79341468733, -103373.91237901598, -107263.29472819505, -108546.44132214086, -101462.3017862203, -102266.3387377666, 0.0, 0.0, 0.0, 196.0, 0.0, 0.0, 0.0, 10.0, 149.0, 125.0, 0.0, 0.0, 0.0, 1.719437669516231E9, 0.0, 2024-06-26 16:34:29.516
112.0, -94093.44572942803, -96834.73072466026, -104083.24498930514, -106765.52137917536, -107714.6211522366, -100099.27005759122, -106177.75990697861, -104474.93695913994, -107397.18167748234, -103288.97575008581, -101504.6583419631, -103364.90462600048, -107265.23932996266, -108546.95541226333, -101465.96747231096, -102264.93057786592, 0.0, 0.0, 0.0, 196.0, 0.0, 0.0, 0.0, 10.0, 149.0, 133.0, 0.0, 0.0, 0.0, 1.719437669523237E9, 0.0, 2024-06-26 16:34:29.523
114.0, -94092.17167999408, -96830.21567228028, -104080.69689043723, -106763.50972217438, -107711.20133533495, -100096.78901395667, -106174.5636075215, -104472.2100463164, -107388.79977331159, -103284.90773259495, -101501.59615297272, -103366.91628300147, -107255.69513508024, -108539.69109531536, -101456.0432977728, -102260.10260106357, 0.0, 0.0, 0.0, 196.0, 0.0, 0.0, 0.0, 10.0, 149.0, 141.0, 0.0, 0.0, 0.0, 1.719437669531313E9, 0.0, 2024-06-26 16:34:29.531
116.0, -94076.5031071309, -96821.81141636509, -104070.30332926552, -106751.93151854654, -107701.34421603015, -100086.14958359595, -106164.10299111641, -104462.01765084478, -107382.45187788628, -103275.60940690154, -101489.57091445576, -103350.53245431572, -107250.01779198859, -108532.00209522274, -101451.1482657371, -102251.11719979254, 0.0, 0.0, 0.0, 196.0, 127.0, 64.0, 0.0, 10.0, 149.0, 149.0, 0.0, 0.0, 0.0, 1.719437669539274E9, 0.0, 2024-06-26 16:34:29.539
118.0, -94076.79367980882, -96822.12434078746, -104070.25862577661, -106751.81975982426, -107700.20427706293, -100085.34492079556, -106163.14186610484, -104461.16828455548, -107378.20504643978, -103272.74838361125, -101488.87801037765, -103354.01932645075, -107244.13928319686, -108527.64350505394, -101444.46509414497, -102248.05501080216, 0.0, 0.0, 0.0, 196.0, 17.5, 96.0, 0.0, 10.0, 149.0, 157.0, 0.0, 0.0, 0.0, 1.719437669547351E9, 0.0, 2024-06-26 16:34:29.547
120.0, -94060.94629299, -96807.64041038042, -104056.44524770323, -106737.17936720603, -107687.59789319013, -100071.88917063347, -106149.9543368762, -104447.7572378823, -107369.3984591244, -103262.91361605092, -101476.60690267169, -103338.41780882094, -107236.38322787086, -108518.56869680509, -101438.22895744193, -102238.19789149737, 0.0, 0.0, 0.0, 196.0, 0.0, 0.0, 0.0, 10.0, 149.0, 165.0, 0.0, 0.0, 0.0, 1.719437669555342E9, 0.0, 2024-06-26 16:34:29.555
122.0, -94069.88699077214, -96814.59180290603, -104062.74843963963, -106743.88489054263, -107692.44822173694, -100077.7676794252, -106155.96695613468, -104454.41805772997, -107366.26921490065, -103260.83490381658, -101476.87512360515, -103341.50234955578, -107234.14805342532, -108515.84178398154, -101433.60214633968, -102235.78390309619, 0.0, 0.0, 0.0, 196.0, 0.0, 0.0, 0.0, 10.0, 149.0, 173.0, 0.0, 0.0, 0.0, 1.719437669563405E9, 0.0, 2024-06-26 16:34:29.563
124.0, -94048.49637132841, -96793.31294218457, -104044.88939581983, -106725.02001822233, -107676.57848317367, -100059.90863560542, -106138.7561129041, -104436.15668250999, -107361.4859415872, -103253.9729182688, -101469.0520130458, -103331.53347152872, -107229.09655917843, -108509.67270251187, -101429.71294280446, -102229.90539430444, 0.0, 0.0, 0.0, 196.0, 0.0, 0.0, 0.0, 10.0, 149.0, 181.0, 0.0, 0.0, 0.0, 1.719437669570354E9, 0.0, 2024-06-26 16:34:29.570
126.0, -94059.15815343359, -96804.10883475648, -104052.37723021237, -106732.93253575952, -107682.07701230967, -100066.90473161993, -106144.65697344029, -104443.04101980223, -107356.34504036249, -103248.1167612215, -101464.08992577672, -103327.73367497131, -107222.39103584184, -108502.96717917529, -101420.99576246689, -102222.99870526776, 0.0, 0.0, 0.0, 196.0, 127.0, 72.0, 0.0, 10.0, 149.0, 189.0, 0.0, 0.0, 0.0, 1.719437669579366E9, 0.0, 2024-06-26 16:34:29.579
128.0, -94054.33017663124, -96802.85713706698, -104051.75138136762, -106731.32321015873, -107683.2169512769, -100066.59180719756, -106145.17106356277, -104442.9963163133, -107361.55299682058, -103254.53171188018, -101468.67203339006, -103331.39936106198, -107229.2083179007, -108509.20331587832, -101428.7965212818, -102229.83833907108, 0.0, 0.0, 0.0, 196.0, 17.5, 96.0, 0.0, 10.0, 149.0, 197.0, 0.0, 0.0, 0.0, 1.719437669587371E9, 0.0, 2024-06-26 16:34:29.587
130.0, -94053.99490046441, -96799.32556144304, -104046.96810805418, -106726.87521301213, -107676.55613142921, -100061.09327806155, -106139.13609255983, -104437.43073194394, -107355.62978453992, -103249.01083099972, -101463.91111182107, -103327.13017787102, -107223.1062916644, -108502.83306870855, -101421.934535734, -102223.44574015687, 0.0, 0.0, 0.0, 196.0, 0.0, 0.0, 0.0, 10.0, 149.0, 205.0, 0.0, 0.0, 0.0, 1.719437669595434E9, 0.0, 2024-06-26 16:34:29.595
132.0, -94043.46722882596, -96789.22257294925, -104040.0614190175, -106718.44860535247, -107670.14118077054, -100053.9630715803, -106131.6482581673, -104429.38410394003, -107352.52289206063, -103243.80287454164, -101459.08313501874, -103323.37508480252, -107217.51835555058, -108498.3627198175, -101417.39713160958, -102219.8247575551, 0.0, 0.0, 0.0, 196.0, 0.0, 0.0, 0.0, 10.0, 149.0, 213.0, 0.0, 0.0, 0.0, 1.719437669602405E9, 0.0, 2024-06-26 16:34:29.602
134.0, -94048.74224051741, -96793.0000177622, -104042.74362835212, -106721.01905596485, -107670.409401704, -100055.61710067, -106133.39169423482, -104431.30635396318, -107350.60064203748, -103241.5229966072, -101456.55738789529, -103319.30706731166, -107216.37841658336, -108495.38993780494, -101415.1396054196, -102216.0249609977, 0.0, 0.0, 0.0, 196.0, 0.0, 0.0, 0.0, 10.0, 149.0, 221.0, 0.0, 0.0, 0.0, 1.719437669610458E9, 0.0, 2024-06-26 16:34:29.610
136.0, -94031.77726647584, -96780.4383373783, -104030.47252064616, -106708.0326924363, -107660.23935797684, -100044.30711797561, -106122.61815340735, -104419.70579859088, -107348.3878193364, -103240.9642029958, -101454.65748961658, -103320.35759930106, -107214.52322179357, -108493.64650173743, -101412.68091352952, -102215.7790918087, 0.0, 0.0, 0.0, 196.0, 127.0, 112.0, 0.0, 10.0, 149.0, 229.0, 0.0, 0.0, 0.0, 1.719437669619438E9, 0.0, 2024-06-26 16:34:29.619
138.0, -94029.05035365229, -96776.32561639854, -104024.5493083655, -106702.02007317783, -107653.01974451778, -100037.82511208358, -106116.18085100423, -104413.46966188785, -107329.6794092273, -103222.07697893107, -101434.69738181798, -103299.12344206852, -107197.29002681852, -108476.39095501792, -101397.01234066635, -102197.24949565524, 0.0, 0.0, 0.0, 196.0, 17.0, 200.0, 0.0, 10.0, 149.0, 237.0, 0.0, 0.0, 0.0, 1.719437669627504E9, 0.0, 2024-06-26 16:34:29.627
140.0, -94020.22141459244, -96769.19540991729, -104020.23542168563, -106698.01911092033, -107649.80109331621, -100033.91355680389, -106112.64927538029, -104409.66986533045, -107334.55208951856, -103224.9156504769, -101436.03848648531, -103306.70068343886, -107198.78759369702, -108478.76023993018, -101397.74994823337, -102201.36221663503, 0.0, 0.0, 0.0, 196.0, 0.0, 0.0, 0.0, 10.0, 149.0, 245.0, 0.0, 0.0, 0.0, 1.719437669634532E9, 0.0, 2024-06-26 16:34:29.634
142.0, -94025.36231581717, -96773.26342740815, -104021.62122984187, -106698.86847720963, -107649.77874157176, -100034.42764692637, -106113.16336550277, -104410.42982464193, -107325.05259812505, -103214.45503407181, -101419.81112001075, -103291.79206988717, -107190.94213139321, -108470.11011482599, -101390.86561094114, -102190.36515836301, 0.0, 0.0, 0.0, 196.0, 0.0, 0.0, 0.0, 10.0, 149.0, 253.0, 0.0, 0.0, 0.0, 1.719437669643512E9, 0.0, 2024-06-26 16:34:29.643
144.0, -94030.65967925308, -96780.5947995895, -104029.89137529033, -106708.3903203476, -107659.81467483219, -100044.10595227551, -106123.28870574103, -104420.30929569117, -107335.31204883005, -103228.00019121173, -101430.85288177167, -103310.90281139646, -107202.72150072116, -108482.26946380967, -101400.27569535682, -102203.59739108055, 0.0, 0.0, 0.0, 196.0, 0.0, 0.0, 0.0, 10.0, 150.0, 5.0, 0.0, 0.0, 0.0, 1.719437669651542E9, 0.0, 2024-06-26 16:34:29.651
146.0, -94038.50514155689, -96785.28866592511, -104033.557061381, -106711.60897154915, -107662.09455276663, -100047.05638254361, -106126.32854298694, -104423.28207770373, -107338.35188607597, -103229.07307494558, -101429.57883233772, -103306.14188982749, -107205.13548912233, -108485.01872837768, -101405.61776228163, -102204.82673702559, 0.0, 0.0, 0.0, 196.0, 127.5, 0.0, 0.0, 10.0, 150.0, 13.0, 0.0, 0.0, 0.0, 1.719437669658538E9, 0.0, 2024-06-26 16:34:29.658
148.0, -94035.8452839667, -96786.85328803699, -104035.2557939596, -106713.59827680569, -107664.84381733464, -100049.35861222251, -106129.12251104385, -104425.71841784936, -107344.27509835662, -103234.75041803723, -101436.86550103016, -103318.45770102236, -107208.33178857945, -108489.39967029092, -101406.93651520449, -102210.7723010507, 0.0, 0.0, 0.0, 196.0, 17.0, 232.0, 0.0, 10.0, 150.0, 21.0, 0.0, 0.0, 0.0, 1.719437669667567E9, 0.0, 2024-06-26 16:34:29.667
150.0, -94042.86373172567, -96791.86007879497, -104040.17317773977, -106716.68281754051, -107668.62126214759, -100052.4655047018, -106132.81054887899, -104428.91471730647, -107345.21387162375, -103234.30338314813, -101433.42333238403, -103310.05344510716, -107210.67872174726, -108489.64553947993, -101411.49627107338, -102209.9229347614, 0.0, 0.0, 0.0, 196.0, 0.0, 0.0, 0.0, 10.0, 150.0, 29.0, 0.0, 0.0, 0.0, 1.719437669675576E9, 0.0, 2024-06-26 16:34:29.675
152.0, -94048.22815039493, -96800.30903819908, -104048.5103784216, -106724.8412042667, -107677.20433201842, -100060.84740887253, -106141.43832223873, -104437.0954557771, -107356.32268861803, -103246.06040073161, -101447.50493139088, -103330.05825639467, -107220.06645441848, -108498.96621691779, -101417.82181475424, -102221.32232443361, 0.0, 0.0, 0.0, 196.0, 0.0, 0.0, 0.0, 10.0, 150.0, 37.0, 0.0, 0.0, 0.0, 1.719437669682638E9, 0.0, 2024-06-26 16:34:29.682
154.0, -94048.54107481732, -96797.49271839771, -104046.43166618726, -106722.85189901017, -107675.17032327299, -100059.08162106057, -106139.8066448935, -104435.44142668742, -107355.47332232873, -103242.64058382995, -101442.14051272161, -103320.06702662315, -107220.84876547442, -108498.27331283966, -101420.90635548906, -102219.44477789936, 0.0, 0.0, 0.0, 196.0, 0.0, 0.0, 0.0, 10.0, 150.0, 45.0, 0.0, 0.0, 0.0, 1.719437669690616E9, 0.0, 2024-06-26 16:34:29.690
156.0, -94045.07655442675, -96793.29059044011, -104042.54246265203, -106720.12498618662, -107672.4657621939, -100055.68415590336, -106136.6997524142, -104431.75338885229, -107360.2342438977, -103247.89324377695, -101450.36595468115, -103333.74629422979, -107225.4532248322, -108501.1119843855, -101421.0851694447, -102224.76449307973, 0.0, 0.0, 0.0, 196.0, 127.0, 64.0, 0.0, 10.0, 150.0, 53.0, 0.0, 0.0, 0.0, 1.719437669698643E9, 0.0, 2024-06-26 16:34:29.698
158.0, -94012.35360054417, -96766.75906977167, -104013.75341579359, -106691.11242188363, -107644.32491592466, -100027.11862648948, -106108.42479567823, -104403.12080420504, -107336.42963605281, -103223.48513883176, -101423.45445435696, -103301.71624442533, -107202.0509483875, -108479.0061091192, -101401.59444827968, -102200.51285034572, 0.0, 0.0, 0.0, 196.0, 18.0, 48.0, 0.0, 10.0, 150.0, 61.0, 0.0, 0.0, 0.0, 1.71943766970766E9, 0.0, 2024-06-26 16:34:29.707
160.0, -94006.944478386, -96759.24888363467, -104008.14312793531, -106685.2339130919, -107637.7535030548, -100021.32952467556, -106102.45687990867, -104396.86231575756, -107318.41413002183, -103209.71646424729, -101410.66925652853, -103294.89896236647, -107184.10249758989, -108463.15872230039, -101382.61781723713, -102186.14067866096, 0.0, 0.0, 0.0, 196.0, 0.0, 0.0, 0.0, 10.0, 150.0, 69.0, 0.0, 0.0, 0.0, 1.71943766971465E9, 0.0, 2024-06-26 16:34:29.714
162.0, -94017.58390874672, -96770.9388459848, -104020.05660772999, -106696.34273008618, -107649.82344506067, -100033.04183877014, -106114.48211842563, -104408.77579555224, -107320.42578702282, -103206.96719967929, -101406.69064601549, -103285.48887795077, -107186.13650633533, -108462.62228043345, -101385.99293064988, -102184.5760565491, 0.0, 0.0, 0.0, 196.0, 0.0, 0.0, 0.0, 10.0, 150.0, 77.0, 0.0, 0.0, 0.0, 1.719437669722682E9, 0.0, 2024-06-26 16:34:29.722
164.0, -94021.60722274867, -96777.55496234358, -104024.72812232115, -106701.21541037744, -107652.97504102887, -100037.04280102764, -106118.5948394054, -104413.26849618775, -107335.44615929677, -103222.59106905355, -101425.37670438012, -103308.86880265104, -107199.63695998632, -108477.5532457296, -101397.70524474446, -102200.64696081245, 0.0, 0.0, 0.0, 196.0, 0.0, 0.0, 0.0, 10.0, 150.0, 85.0, 0.0, 0.0, 0.0, 1.719437669731714E9, 0.0, 2024-06-26 16:34:29.731
166.0, -94014.36525754516, -96771.22941866273, -104020.59304959692, -106696.83446846419, -107650.87397705007, -100033.15359749242, -106116.02438879304, -104409.73692056381, -107331.86988018393, -103219.0147899407, -101418.9841054659, -103297.82704089012, -107199.03346288604, -108474.62516720596, -101398.24168661138, -102196.78010902168, 0.0, 0.0, 0.0, 196.0, 127.0, 72.0, 0.0, 10.0, 150.0, 93.0, 0.0, 0.0, 0.0, 1.719437669738751E9, 0.0, 2024-06-26 16:34:29.738
168.0, -94012.443007522, -96770.76003202917, -104015.58625883893, -106692.87820969561, -107644.2131572024, -100028.05739975661, -106109.81060383447, -104403.94781874989, -107326.57251674803, -103215.14793814992, -101416.57011706474, -103299.63753219099, -107193.08789886093, -108469.7524869147, -101390.01624465184, -102192.46622234181, 0.0, 0.0, 0.0, 196.0, 17.5, 168.0, 0.0, 10.0, 150.0, 101.0, 0.0, 0.0, 0.0, 1.719437669747767E9, 0.0, 2024-06-26 16:34:29.747
170.0, -94003.07762659522, -96761.70757552476, -104008.97014248016, -106685.61389274764, -107639.09460772213, -100021.9106700314, -106104.31207469846, -104397.64462681349, -107322.81742367953, -103210.1634991364, -101408.90346871657, -103289.69100590837, -107187.85759065839, -108465.17037930136, -101387.49049752839, -102187.95116996183, 0.0, 0.0, 0.0, 196.0, 0.0, 0.0, 0.0, 10.0, 150.0, 109.0, 0.0, 0.0, 0.0, 1.719437669754753E9, 0.0, 2024-06-26 16:34:29.754
172.0, -94008.77732143132, -96766.33438662702, -104011.33942739242, -106688.430212549, -107639.29577342221, -100023.96703052128, -106105.96610378816, -104399.83509777012, -107320.49284225618, -103207.97302817978, -101408.54584080528, -103291.94853209837, -107184.97421562365, -108462.42111473336, -101382.68487247049, -102185.35836760502, 0.0, 0.0, 0.0, 196.0, 0.0, 0.0, 0.0, 10.0, 150.0, 117.0, 0.0, 0.0, 0.0, 1.719437669762793E9, 0.0, 2024-06-26 16:34:29.762
174.0, -93999.8366236492, -96759.00301444567, -104006.556154079, -106683.04344213527, -107636.14417745403, -100019.58608860805, -106102.16630723076, -104395.32004539014, -107318.95057188877, -103205.06730140059, -101404.36606459213, -103286.20413377335, -107182.76139292258, -108460.07418156555, -101382.1260788591, -102183.45846932632, 0.0, 0.0, 0.0, 196.0, 0.0, 0.0, 0.0, 10.0, 150.0, 125.0, 0.0, 0.0, 0.0, 1.719437669770784E9, 0.0, 2024-06-26 16:34:29.770
176.0, -94003.05527485076, -96762.44518309178, -104006.57850582345, -106682.97638690191, -107634.26663091978, -100018.44614964082, -106101.45105140819, -104394.64949305648, -107320.67165621182, -103205.73785373424, -101407.00357043787, -103289.31102625263, -107183.58840746742, -108460.9011961104, -101381.63434048109, -102183.59257979305, 0.0, 0.0, 0.0, 196.0, 127.0, 96.0, 0.0, 10.0, 150.0, 133.0, 0.0, 0.0, 0.0, 1.7194376697788E9, 0.0, 2024-06-26 16:34:29.778
178.0, -93982.67048390752, -96745.18963637229, -103990.97698819364, -106667.62073846112, -107620.52030807977, -100003.64929481142, -106087.10123146788, -104379.76323124925, -107309.58519096198, -103195.34429256253, -101394.12896563161, -103277.64341564696, -107173.55247420698, -108450.23941400522, -101371.75486943184, -102173.73546048826, 0.0, 0.0, 0.0, 196.0, 17.5, 136.0, 0.0, 10.0, 150.0, 141.0, 0.0, 0.0, 0.0, 1.719437669786843E9, 0.0, 2024-06-26 16:34:29.786
180.0, -93985.73267289791, -96742.79799971558, -103988.31713060345, -106665.27380529331, -107615.96055221088, -100000.07301569857, -106084.15080119978, -104376.85750447006, -107299.61631293492, -103184.28017905715, -101384.00362539335, -103267.13809575298, -107162.15308453479, -108439.06354177756, -101360.69075592647, -102161.77727720467, 0.0, 0.0, 0.0, 196.0, 0.0, 0.0, 0.0, 10.0, 150.0, 149.0, 0.0, 0.0, 0.0, 1.719437669794845E9, 0.0, 2024-06-26 16:34:29.794
182.0, -93978.55776292775, -96742.9321101823, -103986.99837768059, -106664.02210760381, -107615.93820046642, -99999.46951859827, -106083.1896761882, -104376.3881178365, -107299.45985072374, -103186.64946396941, -101384.92004691603, -103269.9767672988, -107163.36007873536, -108441.32106796755, -101362.25537803835, -102164.30302432812, 0.0, 0.0, 0.0, 196.0, 0.0, 0.0, 0.0, 10.0, 150.0, 157.0, 0.0, 0.0, 0.0, 1.719437669802853E9, 0.0, 2024-06-26 16:34:29.802
184.0, -93988.07960606572, -96750.2411306192, -103992.5416103055, -106668.78302917279, -107619.76034876828, -100003.58223957804, -106087.4365076347, -104380.09850741607, -107298.45402222325, -103184.10136510151, -101382.5731137482, -103265.30525270764, -107163.87416885784, -108439.46587317776, -101361.04838383775, -102160.77144870418, 0.0, 0.0, 0.0, 196.0, 0.0, 0.0, 0.0, 10.0, 150.0, 165.0, 0.0, 0.0, 0.0, 1.719437669810868E9, 0.0, 2024-06-26 16:34:29.810
186.0, -93980.54706818427, -96745.10022939448, -103989.32295910394, -106665.92200588252, -107618.28513363423, -100001.39176862143, -106085.76012680055, -104377.93038820391, -107306.65711243835, -103193.06441462808, -101390.97736966341, -103277.62106390251, -107169.73032590513, -108447.40074245939, -101367.79861066326, -102170.33799533105, 0.0, 0.0, 0.0, 196.0, 127.0, 48.0, 0.0, 10.0, 150.0, 173.0, 0.0, 0.0, 0.0, 1.719437669818885E9, 0.0, 2024-06-26 16:34:29.818
188.0, -93982.37991122961, -96745.2343398612, -103986.88661895832, -106662.7257064254, -107613.47950857635, -99997.52491683066, -106082.27325466553, -104374.44351606889, -107296.53177220009, -103179.47455399926, -101376.85106716765, -103261.14782823896, -107158.37563972184, -108434.3473236975, -101356.6227384356, -102157.03870738015, 0.0, 0.0, 0.0, 196.0, 17.5, 208.0, 0.0, 10.0, 150.0, 181.0, 0.0, 0.0, 0.0, 1.719437669826922E9, 0.0, 2024-06-26 16:34:29.826
190.0, -93978.73657688338, -96743.28973809359, -103986.97602593614, -106663.01627910332, -107615.78173825525, -99998.50839358669, -106083.65906282177, -104375.00230968026, -107302.99142634767, -103187.81175468108, -101386.43996553899, -103273.9777295563, -107164.83529386942, -108441.61164064547, -101362.21067454942, -102165.77823946218, 0.0, 0.0, 0.0, 196.0, 0.0, 0.0, 0.0, 10.0, 150.0, 189.0, 0.0, 0.0, 0.0, 1.719437669834925E9, 0.0, 2024-06-26 16:34:29.834
192.0, -93979.40712921706, -96742.64153750439, -103985.90314220228, -106661.74222966937, -107612.6971975204, -99996.67555054136, -106081.66975756524, -104373.50474280176, -107294.76598438811, -103179.4074987659, -101375.93464564499, -103260.23140671628, -107158.28623274401, -108435.15198649789, -101357.38269774709, -102157.08341086906, 0.0, 0.0, 0.0, 196.0, 0.0, 0.0, 0.0, 10.0, 150.0, 197.0, 0.0, 0.0, 0.0, 1.719437669842994E9, 0.0, 2024-06-26 16:34:29.842
194.0, -93973.41686170302, -96737.67945023532, -103982.59508402289, -106658.74709591236, -107611.04316843071, -99993.9039342289, -106079.50163835307, -104370.62136776703, -107298.38696698988, -103183.34140579002, -101382.41665153703, -103271.49668592175, -107161.01314556756, -108438.25887897717, -101358.23206403639, -102162.22431209378, 0.0, 0.0, 0.0, 196.0, 0.0, 0.0, 0.0, 10.0, 150.0, 205.0, 0.0, 0.0, 0.0, 1.719437669849959E9, 0.0, 2024-06-26 16:34:29.849
196.0, -93974.0874140367, -96741.21102585924, -103979.73406073262, -106655.75196215535, -107607.24337187331, -99990.88644872743, -106076.59591157388, -104368.11797238803, -107290.18387677478, -103173.1043068295, -101369.22912230839, -103254.08467699107, -107152.63124139683, -108429.27347770614, -101352.33120350019, -102151.49547475523, 0.0, 0.0, 0.0, 196.0, 127.0, 64.0, 0.0, 10.0, 150.0, 213.0, 0.0, 0.0, 0.0, 1.719437669858997E9, 0.0, 2024-06-26 16:34:29.858
198.0, -93966.15254475505, -96733.85730193344, -103976.31424383096, -106652.44390397596, -107604.47175556085, -99987.3995765924, -106073.55607432796, -104364.51934153073, -107293.89426635436, -103177.93228363185, -101375.5770177337, -103265.19349398537, -107155.24639549809, -108431.95568704078, -101352.24179652236, -102156.14463760193, 0.0, 0.0, 0.0, 196.0, 18.0, 8.0, 0.0, 10.0, 150.0, 221.0, 0.0, 0.0, 0.0, 1.719437669866983E9, 0.0, 2024-06-26 16:34:29.866
200.0, -93960.8775330636, -96726.95061289676, -103969.11698211635, -106644.28551724977, -107596.58158976813, -99979.33059684404, -106065.33063236841, -104356.31625131563, -107282.4725249377, -103165.19178929232, -101360.86956988211, -103244.5181303642, -107146.73038086062, -108421.67388459134, -101345.2233487634, -102143.38179151795, 0.0, 0.0, 0.0, 196.0, 0.0, 0.0, 0.0, 10.0, 150.0, 228.0, 0.0, 0.0, 0.0, 1.719437669875001E9, 0.0, 2024-06-26 16:34:29.875
202.0, -93947.89116953507, -96713.29369703456, -103955.2365488096, -106631.45561593243, -107582.5446942502, -99966.1430676154, -106051.31608859493, -104342.6816871979, -107279.99148130316, -103161.45904796828, -101360.60134894865, -103249.65903158892, -107139.17549123472, -108416.66709383334, -101335.7685608588, -102140.09608508303, 0.0, 0.0, 0.0, 196.0, 0.0, 0.0, 0.0, 10.0, 150.0, 236.0, 0.0, 0.0, 0.0, 1.719437669882034E9, 0.0, 2024-06-26 16:34:29.882
204.0, -93931.08265770468, -96699.86029861693, -103940.26088002455, -106615.54117388025, -107566.94317662039, -99950.92152964135, -106036.4298267877, -104327.86248062403, -107254.17521645728, -103136.55920464506, -101332.75107535733, -103217.47251957328, -107116.28730491249, -108394.00242495566, -101316.07667399368, -102115.62092490446, 0.0, 0.0, 0.0, 196.0, 0.0, 0.0, 0.0, 10.0, 150.0, 244.0, 0.0, 0.0, 0.0, 1.719437669891088E9, 0.0, 2024-06-26 16:34:29.891
206.0, -93945.58893985617, -96710.29856327755, -103952.0849528414, -106627.49935716383, -107578.05199361467, -99962.87971292493, -106048.43271356019, -104340.06653309663, -107262.0206787611, -103143.22002449275, -101341.95999407292, -103232.47054010279, -107121.11528171484, -108398.96451222475, -101317.37307517209, -102122.14763428541, 0.0, 0.0, 0.0, 196.0, 126.5, 120.0, 0.0, 10.0, 150.0, 252.0, 0.0, 0.0, 0.0, 1.719437669899061E9, 0.0, 2024-06-26 16:34:29.899
208.0, -93946.30419567873, -96716.11001683594, -103955.14714183178, -106629.95804905392, -107581.60592098307, -99965.65132923739, -106051.47255080612, -104342.77109417571, -107265.99928927414, -103146.10339952749, -101342.0717527952, -103227.97783946728, -107127.0384939955, -108403.47956460471, -101326.33612469866, -102125.61215467598, 0.0, 0.0, 0.0, 196.0, 17.5, 128.0, 0.0, 10.0, 151.0, 4.0, 0.0, 0.0, 0.0, 1.719437669906085E9, 0.0, 2024-06-26 16:34:29.906
210.0, -93951.84742830366, -96720.334496538, -103959.57278723393, -106635.41187470102, -107585.22690358483, -99970.1440298729, -106055.74173399709, -104347.44260876687, -107271.0731352655, -103152.2501292527, -101351.34772674415, -103241.3218309071, -107132.71583708715, -108409.51453560765, -101327.99015378836, -102131.69182916783, 0.0, 0.0, 0.0, 196.0, 0.0, 0.0, 0.0, 10.0, 151.0, 12.0, 0.0, 0.0, 0.0, 1.719437669915089E9, 0.0, 2024-06-26 16:34:29.915
212.0, -93945.38777415607, -96714.8806708909, -103955.0353831095, -106630.36038045412, -107582.05295587218, -99965.65132923739, -106051.58430952839, -104342.94990813136, -107269.97789978718, -103151.28900424112, -101345.37981097458, -103232.3140778916, -107131.39708416427, -108408.8886867629, -101330.56060440071, -102129.43430297784, 0.0, 0.0, 0.0, 196.0, 0.0, 0.0, 0.0, 10.0, 151.0, 20.0, 0.0, 0.0, 0.0, 1.719437669923125E9, 0.0, 2024-06-26 16:34:29.923
214.0, -93952.29446319277, -96719.75335118215, -103960.15393258978, -106636.37299971259, -107586.25508382978, -99970.88163743993, -106056.59110028639, -104348.1802163339, -107270.53669339856, -103152.92068158636, -101350.00662207683, -103241.29947916264, -107129.49718588557, -108409.55923909656, -101328.99598228885, -102131.71418091228, 0.0, 0.0, 0.0, 196.0, 0.0, 0.0, 0.0, 10.0, 151.0, 28.0, 0.0, 0.0, 0.0, 1.719437669932155E9, 0.0, 2024-06-26 16:34:29.932
216.0, -93948.87464629111, -96720.26744130462, -103959.8857116563, -106635.99302005685, -107587.68559547492, -99971.50748628468, -106057.39576308678, -104348.56019598964, -107271.78839108806, -103151.71368738577, -101346.5197499418, -103234.48219710377, -107133.02876150951, -108410.34155015249, -101331.94641255694, -102131.42360823437, 0.0, 0.0, 0.0, 196.0, 126.5, 56.0, 0.0, 10.0, 151.0, 36.0, 0.0, 0.0, 0.0, 1.719437669938185E9, 0.0, 2024-06-26 16:34:29.938
218.0, -93944.11372472212, -96714.41128425734, -103952.7331534306, -106628.8181100867, -107578.63313897052, -99963.55026525859, -106048.83504496039, -104340.46886449681, -107272.95068179973, -103154.1500275314, -101350.56541568821, -103242.99821174124, -107133.05111325397, -108410.38625364141, -101330.38179044507, -102133.5023204687, 0.0, 0.0, 0.0, 196.0, 17.5, 128.0, 0.0, 10.0, 151.0, 44.0, 0.0, 0.0, 0.0, 1.719437669947189E9, 0.0, 2024-06-26 16:34:29.947
220.0, -93935.03891647326, -96708.06338883203, -103947.88282488381, -106623.38663618406, -107574.7439354353, -99958.99050938971, -106044.78937921398, -104336.04321909467, -107262.49006539465, -103141.16366400286, -101335.70150562543, -103225.63090629947, -107120.95881950365, -108398.65158780236, -101320.54702288474, -102120.44890170681, 0.0, 0.0, 0.0, 196.0, 0.0, 0.0, 0.0, 10.0, 151.0, 52.0, 0.0, 0.0, 0.0, 1.719437669954209E9, 0.0, 2024-06-26 16:34:29.954
222.0, -93940.00100374235, -96710.58913595548, -103949.13452257331, -106624.92890655147, -107574.31925229065, -99959.25873032317, -106044.78937921398, -104336.31144002813, -107266.4239724188, -103144.8964053269, -101341.82588360619, -103233.00698196972, -107125.69738932818, -108402.47373610422, -101322.69279035245, -102124.18164303085, 0.0, 0.0, 0.0, 196.0, 0.0, 0.0, 0.0, 10.0, 151.0, 60.0, 0.0, 0.0, 0.0, 1.719437669962222E9, 0.0, 2024-06-26 16:34:29.962
224.0, -93923.48306458988, -96698.54154569407, -103936.37167648932, -106612.32252267869, -107563.5904149521, -99947.3899540174, -106033.2782308195, -104324.28620151118, -107255.06928623549, -103137.16270174536, -101330.09121776716, -103220.4676533303, -107116.60022933487, -108393.30952087755, -101315.00379025983, -102115.62092490446, 0.0, 0.0, 0.0, 196.0, 0.0, 0.0, 0.0, 10.0, 151.0, 68.0, 0.0, 0.0, 0.0, 1.719437669971196E9, 0.0, 2024-06-26 16:34:29.971
226.0, -93929.0710007037, -96699.32385675, -103937.22104277862, -106612.88131629006, -107561.31053701765, -99947.12173308394, -106032.58532674139, -104324.53207070018, -107249.59310884394, -103130.07719875303, -101324.30211595322, -103214.65619977191, -107108.24067690858, -108386.3804800964, -101306.06309247769, -102107.7531108562, 0.0, 0.0, 0.0, 196.0, 126.5, 40.0, 0.0, 10.0, 151.0, 76.0, 0.0, 0.0, 0.0, 1.71943766997926E9, 0.0, 2024-06-26 16:34:29.979
228.0, -93917.29163137575, -96690.69608339026, -103931.2307752646, -106607.00280749833, -107558.3377550051, -99942.40551500386, -106028.98669588409, -104319.90525959793, -107251.06832397799, -103130.41247491985, -101324.27976420877, -103215.77378699467, -107110.34174088738, -108387.6321777859, -101307.3594936561, -102109.47419517925, 0.0, 0.0, 0.0, 196.0, 18.0, 48.0, 0.0, 10.0, 151.0, 84.0, 0.0, 0.0, 0.0, 1.719437669986269E9, 0.0, 2024-06-26 16:34:29.986
230.0, -93922.90191923403, -96695.54641193706, -103931.78956887599, -106607.98628425435, -107557.30957476016, -99942.07023883704, -106028.29379180596, -104319.77114913121, -107246.82149253148, -103123.95282077228, -101317.84246180565, -103208.33065609106, -107103.8820867398, -108380.77019223812, -101301.36922614208, -102102.00871253118, 0.0, 0.0, 0.0, 196.0, 0.0, 0.0, 0.0, 10.0, 151.0, 92.0, 0.0, 0.0, 0.0, 1.719437669995361E9, 0.0, 2024-06-26 16:34:29.995
232.0, -93917.62690754258, -96692.86420260242, -103930.24729850856, -106606.73458656485, -107557.64485092698, -99941.4890934812, -106027.91381215022, -104318.56415493062, -107248.54257685454, -103127.05971325157, -101320.39056067355, -103213.27039161569, -107106.60899956334, -108384.19000913978, -101304.05143547672, -102105.71910211076, 0.0, 0.0, 0.0, 196.0, 0.0, 0.0, 0.0, 10.0, 151.0, 100.0, 0.0, 0.0, 0.0, 1.719437670003492E9, 0.0, 2024-06-26 16:34:30.003
234.0, -93920.04089594375, -96692.10424329093, -103928.83913860789, -106603.98532199685, -107553.75564739176, -99938.3822010019, -106024.31518129291, -104315.7254833848, -107243.40167562982, -103121.76234981566, -101314.7132175819, -103205.26846710069, -107102.47392683911, -108378.53501779259, -101300.00576973031, -102099.95235204129, 0.0, 0.0, 0.0, 196.0, 0.0, 0.0, 0.0, 10.0, 151.0, 108.0, 0.0, 0.0, 0.0, 1.719437670011225E9, 0.0, 2024-06-26 16:34:30.011
236.0, -93912.41895108449, -96685.51047867662, -103925.3299147284, -106600.34198765064, -107551.81104562416, -99935.25295677817, -106021.96824812511, -104312.5738874166, -107246.01682973109, -103124.10928298347, -101317.88716529455, -103212.44337707084, -107101.1775256607, -108380.79254398258, -101300.05047321922, -102103.23805847623, 0.0, 0.0, 0.0, 196.0, 126.5, 24.0, 0.0, 10.0, 151.0, 116.0, 0.0, 0.0, 0.0, 1.719437670018439E9, 0.0, 2024-06-26 16:34:30.018
238.0, -93914.54236680776, -96688.08092928898, -103923.18414726069, -106598.7103103054, -107548.12300778902, -99932.68250616582, -106019.26368704603, -104310.45047169334, -107236.29382089303, -103114.87801252342, -101304.85609827712, -103197.13243211895, -107094.11437441282, -108370.7342589777, -101292.71910103787, -102092.62097985996, 0.0, 0.0, 0.0, 196.0, 17.5, 176.0, 0.0, 10.0, 151.0, 124.0, 0.0, 0.0, 0.0, 1.719437670026416E9, 0.0, 2024-06-26 16:34:30.026
240.0, -93902.02538991277, -96678.29086521755, -103915.27162972352, -106591.31188289069, -107541.0375047967, -99925.4852444512, -106011.90996312023, -104302.6720646229, -107239.3113063945, -103118.63310559191, -101309.75113031283, -103206.27429560118, -107097.31067386994, -108373.81879971252, -101293.30024639372, -102097.0466252621, 0.0, 0.0, 0.0, 196.0, 0.0, 0.0, 0.0, 10.0, 151.0, 132.0, 0.0, 0.0, 0.0, 1.719437670035386E9, 0.0, 2024-06-26 16:34:30.035
242.0, -93887.11677636109, -96661.28118768707, -103896.89849578125, -106572.46936231488, -107521.63619060948, -99906.44155817528, -105993.13449777776, -104284.12011672498, -107218.8594602179, -103096.70604428125, -101286.03592944574, -103177.99933886521, -107076.5235515265, -108353.79163668057, -101274.41302232898, -102074.56077034006, 0.0, 0.0, 0.0, 196.0, 0.0, 0.0, 0.0, 10.0, 151.0, 140.0, 0.0, 0.0, 0.0, 1.719437670042367E9, 0.0, 2024-06-26 16:34:30.042
244.0, -93890.06720662919, -96665.50566738912, -103902.03939700597, -106577.56556005069, -107527.15707148994, -99911.64951463336, -105998.9683030806, -104289.52923888317, -107217.98774218414, -103096.72839602572, -101288.49462133582, -103184.61545522398, -107074.13191486978, -108352.13760759088, -101270.63557751603, -102074.44901161779, 0.0, 0.0, 0.0, 196.0, 0.0, 0.0, 0.0, 10.0, 151.0, 148.0, 0.0, 0.0, 0.0, 1.719437670050386E9, 0.0, 2024-06-26 16:34:30.050
246.0, -93888.61434323959, -96664.03045225507, -103898.99955976005, -106573.63165302655, -107523.08905399908, -99907.93912505379, -105994.81087861191, -104285.55062837013, -107215.05966366049, -103090.96164595624, -101281.16324915449, -103171.62909169545, -107072.83551369137, -108347.86842439992, -101269.92032169347, -102068.52579933713, 0.0, 0.0, 0.0, 196.0, 126.5, 16.0, 0.0, 10.0, 151.0, 156.0, 0.0, 0.0, 0.0, 1.719437670058402E9, 0.0, 2024-06-26 16:34:30.058
248.0, -93889.03902638424, -96663.56106562151, -103899.0219115045, -106574.4586675714, -107523.80430982164, -99908.833194832, -105995.59318966785, -104286.48940163726, -107218.79240498453, -103096.97426521473, -101289.12047018057, -103184.86132441298, -107074.53424626998, -108351.80233142404, -101270.92615019396, -102074.7395842957, 0.0, 0.0, 0.0, 196.0, 17.5, 176.0, 0.0, 10.0, 151.0, 164.0, 0.0, 0.0, 0.0, 1.719437670066441E9, 0.0, 2024-06-26 16:34:30.066
250.0, -93889.1060816176, -96662.24231269864, -103896.56321961441, -106571.28471985874, -107520.31743768662, -99905.39102618588, -105992.53100067747, -104283.44956439133, -107213.58444852644, -103089.03939593308, -101278.01165318629, -103170.24328353921, -107068.70044096715, -108345.45443599873, -101267.68514724793, -102066.38003186943, 0.0, 0.0, 0.0, 196.0, 0.0, 0.0, 0.0, 10.0, 151.0, 172.0, 0.0, 0.0, 0.0, 1.7194376700745E9, 0.0, 2024-06-26 16:34:30.074
252.0, -93888.23436358385, -96661.90703653182, -103896.40675740324, -106571.5529407922, -107520.33978943108, -99905.2792674636, -105993.0227390555, -104283.85189579152, -107218.03244567305, -103093.3309308685, -101284.76188001179, -103181.93324588935, -107070.33211831238, -108347.55549997753, -101266.18758036943, -102069.75514528218, 0.0, 0.0, 0.0, 196.0, 0.0, 0.0, 0.0, 10.0, 151.0, 180.0, 0.0, 0.0, 0.0, 1.719437670082469E9, 0.0, 2024-06-26 16:34:30.082
254.0, -93891.18479385195, -96669.52898139108, -103898.08313823739, -106571.66469951448, -107522.86553655453, -99906.06157851954, -105994.94498907865, -104284.63420684746, -107212.10923339239, -103088.50295406616, -101275.03887117373, -103168.43279223834, -107068.5216270115, -108342.1240260749, -101266.16522862497, -102064.05545044607, 0.0, 0.0, 0.0, 196.0, 0.0, 0.0, 0.0, 10.0, 151.0, 188.0, 0.0, 0.0, 0.0, 1.719437670091487E9, 0.0, 2024-06-26 16:34:30.091
0.0, -93899.09731138914, -96675.87687681639, -103903.08992899537, -106577.2526356283, -107527.00060927877, -99910.95661055525, -105999.39298622526, -104289.14925922743, -107223.64273353133, -103101.0869861945, -101290.4615748479, -103187.69999595881, -107077.64113874927, -108352.71875294672, -101273.74246999533, -102076.43831687431, 0.0, 0.0, 0.0, 196.0, 0.0, 0.0, 0.0, 10.0, 151.0, 196.0, 0.0, 0.0, 0.0, 1.71943767009854E9, 0.0, 2024-06-26 16:34:30.098
2.0, -93894.5152037758, -96671.65239711433, -103898.35135917085, -106572.1564378925, -107522.61966736552, -99905.99452328618, -105994.27443674499, -104283.7624888137, -107219.17238464027, -103092.95095121277, -101279.7550892538, -103172.61256845148, -107071.8743886798, -108347.73431393318, -101270.03208041574, -102068.68226154833, 0.0, 0.0, 0.0, 196.0, 0.0, 0.0, 0.0, 10.0, 151.0, 204.0, 0.0, 0.0, 0.0, 1.719437670106518E9, 0.0, 2024-06-26 16:34:30.106
4.0, -93892.83882294165, -96668.54550463504, -103894.84213529136, -106568.58015877964, -107517.59052486307, -99901.45711916174, -105989.93819832065, -104279.38154690046, -107220.11115790739, -103094.29205588008, -101283.42077534446, -103180.8603621555, -107070.66739447921, -108346.46026449923, -101265.44997280241, -102068.95048248179, 0.0, 0.0, 0.0, 196.0, 0.0, 0.0, 0.0, 10.0, 151.0, 212.0, 0.0, 0.0, 0.0, 1.719437670114502E9, 0.0, 2024-06-26 16:34:30.114
6.0, -93892.23532584135, -96665.37155692239, -103894.8197835469, -106567.86490295708, -107518.08226324109, -99901.23360171719, -105990.3181779764, -104279.58271260056, -107215.77491948307, -103087.60888428794, -101274.88240896254, -103168.18692304933, -107066.19704558815, -108341.05114234104, -101263.39361231252, -102062.82610450103, 0.0, 0.0, 0.0, 196.0, 126.0, 88.0, 0.0, 10.0, 151.0, 220.0, 0.0, 0.0, 0.0, 1.719437670122556E9, 0.0, 2024-06-26 16:34:30.122
8.0, -93890.51424151829, -96667.09264124544, -103893.43397539068, -106567.44021981243, -107516.38353066248, -99900.0266075166, -105989.13353552026, -104278.77804980017, -107218.39007358433, -103091.94512271228, -101281.78909799924, -103177.97698712075, -107070.17565610119, -108343.77805516458, -101264.19827511291, -102067.05058420308, 0.0, 0.0, 0.0, 196.0, 18.0, 144.0, 0.0, 10.0, 151.0, 228.0, 0.0, 0.0, 0.0, 1.719437670130674E9, 0.0, 2024-06-26 16:34:30.130
